Oxysoft export of:	C:\Users\NIRS\Desktop\colm101
Export date:	2016/11/23 16:59:14
Start of measurement:	2016-11-23 16:55:35.871

Datafile sample rate:	10.00	Hz
Datafile duration:	170.40	s
Datafile total number of samples:	1704

Description:	

Optode-template:	3 x 1 channel (split) I
Optode distance (mm):	 10.00	10.00	10.00
Optode gradients (mm):	 -	-	-
DPF:	4.00	4.00	4.00

Device id:	10221
# Receivers:	2
# Light sources:	8
# ADC:	0

Light source wavelengths:
device	index	wavelength
1	1	847	nm
1	2	762	nm
1	3	847	nm
1	4	761	nm
1	5	847	nm
1	6	761	nm
1	7	847	nm
1	8	761	nm

Export sample rate:	10.00	Hz
No time span selected, exporting full time span



Legend:
Column	Trace (Measurement)
1	(Sample number)
2	Rx1 - Tx1 O2Hb (colm101)
3	Rx1 - Tx1 HHb (colm101)
4	Rx2a - Tx2 O2Hb (colm101)
5	Rx2a - Tx2 HHb (colm101)
6	Rx2b - Tx3 O2Hb (colm101)
7	Rx2b - Tx3 HHb (colm101)
8	(Event)


1	2	3	4	5	6	7	8
     0	-0.0002	 0.0001	-1.8166	-6.1138	-3.8082	-2.4919	 
     1	-0.0002	 0.0001	-3.0898	-4.2567	-1.5448	-1.4910	 
     2	-0.0002	 0.0001	-0.8051	-4.1633	-2.4570	-1.7539	 
     3	-0.0002	 0.0001	-2.8616	-2.9167	-2.0912	-1.2518	 
     4	-0.0002	 0.0001	-0.8051	-4.1633	-0.2366	-0.2124	 
     5	-0.0002	 0.0001	-2.4142	-3.5691	-1.6652	-0.9968	 
     6	-0.0002	 0.0001	-0.6283	-1.7922	-3.0938	-1.7812	 
     7	-0.0002	 0.0001	 1.8756	-3.6913	 0.8520	-0.1271	 
     8	-0.0002	 0.0001	-0.3055	-1.3866	 1.4717	 0.2438	 
     9	-0.0002	 0.0001	 5.0984	-2.8948	 0.4089	-0.0384	 
    10	-0.0002	 0.0001	 3.3647	-1.2425	 1.4933	 0.6107	 
    11	-0.0002	 0.0001	 5.0984	-2.8948	 2.5733	 1.1865	 
    12	-0.0002	 0.0001	 0.4476	-0.6526	 1.7472	 1.1167	 
    13	-0.0002	 0.0001	-0.1809	-2.4447	 1.8376	 1.3832	 
    14	-0.0002	 0.0001	 2.6631	-3.0075	 2.2550	 1.4914	 
    15	-0.0002	 0.0001	-1.1100	-1.0895	 1.0888	 0.7226	 
    16	-0.0002	 0.0001	 1.3768	-2.0078	 0.2067	 0.3361	 
    17	-0.0002	 0.0001	 1.2522	-0.9497	 3.7868	 1.4881	 
    18	-0.0002	 0.0001	 1.2522	-0.9497	 2.3840	 1.1439	 
    19	-0.0002	 0.0001	 0.0517	-1.0312	 0.5940	 0.5679	 
    20	-0.0002	 0.0001	 0.4476	-0.6526	 0.6542	 0.3208	 
    21	-0.0002	 0.0001	 0.0003	-0.0002	 0.0001	 0.0001	 
    22	-0.0002	 0.0001	 1.3768	-2.0078	-1.4586	-0.6607	 
    23	-0.0002	 0.0001	 0.9294	-1.3553	-1.9190	-0.8656	 
    24	-0.0002	 0.0001	-2.0392	 0.2656	-2.2246	-0.9777	 
    25	-0.0002	 0.0001	 0.0517	-1.0312	-2.8055	-1.3254	 
    26	-0.0002	 0.0001	 2.1813	-2.3049	-0.1764	-0.4595	 
    27	-0.0002	 0.0001	 2.1813	-2.3049	-0.4561	-0.7685	 
    28	-0.0002	 0.0001	 2.1813	-2.3049	-2.8873	-1.4451	 
    29	-0.0002	 0.0001	-0.7528	-0.7341	-2.1256	-1.2016	 
    30	-0.0002	 0.0001	 3.0590	-2.6290	-1.6738	-1.1435	 
    31	-0.0002	 0.0001	 1.3768	-2.0078	-3.3907	-1.7465	 
    32	-0.0002	 0.0001	-1.5574	-0.4370	-4.3503	-2.1793	 
    33	-0.0002	 0.0001	-0.6283	-1.7922	-4.7720	-2.3610	 
    34	-0.0002	 0.0001	-0.5381	-2.8001	-5.0044	-2.5001	 
    35	-0.0002	 0.0001	-1.5574	-0.4370	-4.5740	-2.1717	 
    36	-0.0002	 0.0001	 0.9808	-2.3864	-0.8477	-1.0737	 
    37	-0.0002	 0.0001	 0.6237	-2.7418	-2.8658	-1.7154	 
    38	-0.0002	 0.0001	 1.0710	-3.3942	-3.5887	-1.9358	 
    39	-0.0002	 0.0001	-0.1809	-2.4447	-2.5560	-1.5300	 
    40	-0.0002	 0.0001	-0.6283	-1.7922	-3.0250	-1.8815	 
    41	-0.0002	 0.0001	-0.0907	-3.4525	-4.2384	-2.1832	 
    42	-0.0002	 0.0001	-0.5381	-2.8001	-4.4622	-2.1755	 
    43	-0.0002	 0.0001	 1.1612	-4.4021	-4.1610	-2.1368	 
    44	-0.0002	 0.0001	-2.9517	-1.9088	-4.3847	-2.1291	 
    45	-0.0002	 0.0001	-2.8616	-2.9167	-5.3357	-2.4152	 
    46	-0.0002	 0.0001	 0.7138	-3.7496	-1.9794	-1.2556	 
    47	-0.0002	 0.0001	-1.7900	-1.8505	-1.6825	-1.2903	 
    48	-221.3302	83.0890	-0.0006	-4.4604	-3.5112	-1.8894	 
    49	-216.8432	81.4046	-3.3991	-1.2563	-3.0508	-1.6846	 
    50	-216.8432	81.4046	-0.6283	-1.7922	-2.5259	-1.6535	 
    51	-216.9904	81.4598	 1.1612	-4.4021	-3.8899	-1.9745	 
    52	-217.2110	81.5427	-0.9854	-2.1476	-4.3116	-2.1561	 
    53	-217.2846	81.5703	 0.4124	-5.0627	-4.3503	-2.1793	 
    54	-217.3581	81.5979	-1.3426	-2.5030	-4.7376	-2.4112	 
    55	-217.5052	81.6531	-2.5945	-1.5534	-5.6498	-2.6740	 
    56	-217.2846	81.5703	-0.4479	-3.8079	-5.3443	-2.5620	 
    57	-216.4019	81.2389	-2.1472	-2.2059	-1.5922	-1.6610	 
    58	-216.4755	81.2665	-1.3426	-2.5030	-3.6490	-2.3258	 
    59	-216.6226	81.3218	-3.3991	-1.2563	-4.5268	-2.6389	 
    60	-216.4755	81.2665	-1.3426	-2.5030	-3.4209	-2.2601	 
    61	-216.4755	81.2665	 2.7703	-4.9963	-3.8470	-2.5151	 
    62	-216.6961	81.3494	-0.8953	-3.1554	-4.9141	-2.8708	 
    63	-216.9168	81.4322	 0.8040	-4.7575	-5.2196	-2.9828	 
    64	-217.0639	81.4875	-0.4479	-3.8079	-5.3014	-3.1026	 
    65	-217.2110	81.5427	-0.3922	-4.7656	-5.7962	-3.2572	 
    66	-217.3581	81.5979	-4.3418	-3.3072	-6.3384	-3.5818	 
    67	-216.9904	81.4598	-1.2525	-3.5108	-5.0733	-3.0369	 
    68	-216.1077	81.1285	-1.9146	-0.7924	-1.8806	-2.1167	 
    69	-216.2548	81.1837	-1.6998	-2.8584	-3.6706	-2.6927	 
    70	-216.2548	81.1837	-0.4479	-3.8079	-3.8599	-2.7352	 
    71	-216.0341	81.1009	-0.8953	-3.1554	-2.9907	-2.5689	 
    72	-216.2548	81.1837	-2.1472	-2.2059	-3.9460	-2.9284	 
    73	-216.4755	81.2665	-0.4479	-3.8079	-4.8969	-3.2144	 
    74	-216.6226	81.3218	-0.9854	-2.1476	-4.9787	-3.3342	 
    75	-216.7697	81.3770	-3.6661	-2.6196	-5.1724	-3.4501	 
    76	-216.9168	81.4322	-1.1967	-4.4685	-5.8608	-3.7206	 
    77	-217.1375	81.5151	-0.3922	-4.7656	-7.0398	-4.0724	 
    78	-216.9168	81.4322	-1.6097	-3.8662	-5.5510	-3.5352	 
    79	-216.1077	81.1285	-2.1472	-2.2059	-2.1990	-2.4489	 
    80	-116.5970	-64.1680	-1.6998	-2.8584	-4.3677	-3.1100	 
    81	-116.8177	-64.0852	-2.5945	-1.5534	-4.8668	-3.3380	 
    82	-124.8215	-52.2521	 1.1612	-4.4021	-3.7997	-2.9824	 
    83	-124.8603	-52.2753	-0.1809	-2.4447	-4.4495	-3.2297	 
    84	-125.0113	-52.2941	-1.2525	-3.5108	-5.3961	-3.4424	 
    85	-125.1584	-52.2389	-2.8616	-2.9167	-5.3230	-3.4694	 
    86	-125.1971	-52.2621	-2.4142	-3.5691	-5.4348	-3.4656	 
    87	-125.2746	-52.3085	-2.0570	-3.2138	-5.9340	-3.6936	 
    88	-125.4604	-52.2764	-0.4479	-3.8079	-6.9150	-3.8561	 
    89	-124.9299	-52.1737	-2.4142	-3.5691	-3.8341	-2.9322	 
    90	-124.7054	-52.1826	-1.2525	-3.5108	-2.9219	-2.6693	 
    91	-124.8603	-52.2753	-1.6998	-2.8584	-4.7894	-3.2916	 
    92	-125.0113	-52.2941	-0.4479	-3.8079	-4.4021	-3.0598	 
    93	-124.9725	-52.2709	-1.2525	-3.5108	-3.6104	-2.9398	 
    94	-125.1236	-52.2897	-4.1135	-1.9671	-4.9013	-3.2878	 
    95	-125.2010	-52.3361	-2.5044	-2.5613	-5.7317	-3.4310	 
    96	-125.4256	-52.3272	-3.7563	-1.6117	-5.6242	-3.5082	 
    97	-125.4643	-52.3504	-2.1472	-2.2059	-5.5467	-3.4618	 
    98	-125.5030	-52.3736	-1.5539	-4.8239	-5.6973	-3.4812	 
    99	-125.5766	-52.3460	-2.3584	-4.5268	-5.9899	-3.3731	 
   100	-124.8564	-52.2013	-1.2525	-3.5108	-1.7601	-1.9738	 
   101	-124.6705	-52.2334	 0.0552	-5.4181	-2.5174	-2.1440	 
   102	-124.9687	-52.1969	-2.5044	-2.5613	-3.6189	-2.4494	 
   103	-124.8215	-52.2521	-0.8051	-4.1633	-2.7067	-2.1865	 
   104	-124.7789	-52.1550	-3.3089	-2.2642	-2.4829	-2.1942	 
   105	-124.9299	-52.1737	-1.6097	-3.8662	-3.6146	-2.3760	 
   106	-125.1158	-52.1417	-2.6425	-4.9092	-3.9976	-2.5345	 
   107	-125.1932	-52.1881	-2.2295	-5.5115	-4.1181	-2.6774	 
   108	-125.2707	-52.2345	-3.2187	-3.2721	-4.7721	-2.9981	 
   109	-125.3481	-52.2808	-2.4142	-3.5691	-5.6887	-3.3344	 
   110	-125.3481	-52.2808	-3.9502	-3.0020	-6.0716	-3.4929	 
   111	-124.6667	-52.1594	-2.2295	-5.5115	-2.1904	-2.3022	 
   112	-124.7015	-52.1086	-1.1065	-5.4764	-3.3350	-2.7042	 
   113	-124.8177	-52.1782	-2.8058	-3.8743	-4.8625	-3.2646	 
   114	-124.7441	-52.2058	-3.0341	-5.2144	-4.2171	-3.0906	 
   115	-124.7750	-52.0810	-2.0570	-3.2138	-4.1827	-3.1408	 
   116	-124.8138	-52.1042	-2.4142	-3.5691	-5.4047	-3.5892	 
   117	-124.9299	-52.1737	-1.9111	-5.1793	-5.6672	-3.6047	 
   118	-124.8912	-52.1505	-4.2516	-4.3150	-5.6715	-3.6781	 
   119	-124.9260	-52.0997	-5.7144	-3.7749	-6.1233	-3.7362	 
   120	-124.9648	-52.1229	-6.1060	-4.0801	-6.8849	-3.9797	 
   121	-125.0383	-52.0953	-2.8838	-7.1066	-6.8032	-3.8600	 
   122	-124.3956	-51.9970	-1.8166	-6.1138	-2.7025	-2.7503	 
   123	-124.3220	-52.0247	-3.2968	-6.5043	-3.6792	-2.8395	 
   124	-124.1206	-51.7607	-5.9771	-5.0648	-3.2402	-2.3643	 
   125	-122.5252	-50.6619	-8.4391	-9.4409	 1.4888	-0.0998	 
   126	-122.0218	-50.3604	-11.4468	-10.3918	 2.4958	 0.5029	 
   127	-122.0567	-50.3096	-9.0717	-10.0319	 1.7772	 0.3559	 
   128	-121.8243	-50.1705	-11.4468	-10.3918	 2.4313	 0.6767	 
   129	-121.5107	-49.9109	-9.2357	-12.8201	 3.3564	 1.1597	 
   130	-121.2009	-49.7254	-12.2948	-12.1028	 4.2945	 1.8628	 
   131	-121.1583	-49.6282	-13.0740	-14.5514	 4.9572	 2.3303	 
   132	-120.9415	-49.7851	-13.2028	-12.9295	 6.1018	 2.7323	 
   133	-120.4420	-49.5576	-14.4549	-13.2543	 8.5115	 3.6792	 
   134	-120.6743	-49.6967	-14.6959	-13.5401	 6.3600	 2.6744	 
   135	-121.6463	-50.3505	-11.9162	-12.6549	 3.6189	 1.1752	 
   136	-123.5902	-51.6580	-4.3253	-7.4739	-1.5578	-1.7112	 
   137	-124.2755	-51.8535	-4.2516	-4.3150	-4.4408	-3.0830	 
   138	-124.3917	-51.9230	-2.2295	-5.5115	-5.6242	-3.5082	 
   139	-124.5079	-51.9926	-0.7493	-5.1210	-5.9813	-3.8636	 
   140	-124.6628	-52.0854	-0.7493	-5.1210	-6.7516	-4.2538	 
   141	-124.8525	-52.1273	 0.1110	-6.3758	-7.9866	-4.9223	 
   142	-124.8912	-52.1505	-4.8449	-1.6970	-9.0968	-5.3745	 
   143	-124.0975	-52.0335	-3.9502	-3.0020	-5.5770	-4.6126	 
   144	-124.0200	-51.9871	 0.5026	-6.0706	-6.2999	-4.8329	 
   145	-124.1672	-51.9319	-0.7493	-5.1210	-7.7500	-5.3470	 
   146	-124.0200	-51.9871	-2.4142	-3.5691	-7.3370	-5.3121	 
   147	-124.0200	-51.9871	-0.7493	-5.1210	-7.6855	-5.5208	 
   148	-124.1672	-51.9319	-1.9111	-5.1793	-8.8688	-5.9459	 
   149	-124.2059	-51.9551	-2.3584	-4.5268	-9.2905	-6.1276	 
   150	-124.3220	-52.0247	-1.9111	-5.1793	-9.4411	-6.1469	 
   151	-124.3995	-52.0710	-2.2295	-5.5115	-9.9016	-6.3518	 
   152	-124.5466	-52.0158	-3.0898	-4.2567	-10.5857	-6.5489	 
   153	-123.9426	-51.9407	-3.8944	-3.9597	-7.5952	-5.8915	 
   154	-123.7141	-51.8756	-3.4257	-5.5196	-7.4489	-5.9455	 
   155	-123.8651	-51.8944	-3.0341	-5.2144	-9.1916	-6.3515	 
   156	-123.7877	-51.8480	-2.6211	-5.8167	1362.7170	-512.7892	 
   157	-123.6754	-51.8524	-2.9783	-6.1721	1362.7859	-512.8895	 
   158	-123.8264	-51.8712	-2.1524	-7.3767	1077.7134	-408.3741	 
   159	-124.0161	-51.9131	-5.3015	-4.3772	1078.0575	-408.8760	 
   160	-124.1323	-51.9827	-6.1618	-3.1224	1078.1263	-408.9763	 
   161	-124.2059	-51.9551	-3.7097	-5.9020	-10.3965	-7.1436	 
   162	-124.2833	-52.0015	-4.0282	-6.2342	-10.9731	-7.4179	 
   163	-124.2059	-51.9551	-6.9663	-2.8253	-10.4051	-7.2903	 
   164	-123.6367	-51.8292	 0.5797	-7.9357	-7.3028	-6.6367	 
   165	-123.7141	-51.8756	-3.0341	-5.2144	-8.8217	-7.0504	 
   166	-123.7529	-51.8988	-5.1512	-6.2693	-9.4585	-7.0776	 
   167	-123.6754	-51.8524	-4.4198	-6.5394	-8.5893	-6.9113	 
   168	-123.7141	-51.8756	-2.1524	-7.3767	-9.2735	-7.1084	 
   169	-123.9813	-51.9639	-4.8885	-4.9795	-10.1857	-7.3713	 
   170	-124.0588	-52.0103	-2.6211	-5.8167	-10.4439	-7.3135	 
   171	-124.2446	-51.9783	-4.4198	-6.5394	-10.6289	-7.2827	 
   172	-124.3182	-51.9507	-3.7097	-5.9020	-10.9000	-7.4449	 
   173	-124.3995	-52.0710	-4.8885	-4.9795	-11.4292	-7.5494	 
   174	-124.3647	-52.1218	-1.9111	-5.1793	-10.9301	-7.3214	 
   175	-123.7955	-51.9960	-0.7493	-5.1210	-7.3372	-6.5865	 
   176	-123.8342	-52.0192	-2.4142	-3.5691	-8.7012	-6.9074	 
   177	-124.1014	-52.1075	-1.2525	-3.5108	-9.8027	-7.2129	 
   178	-124.0975	-52.0335	-1.1967	-4.4685	-8.9766	-7.1431	 
   179	-123.9891	-52.1119	-1.2525	-3.5108	-9.3165	-7.2050	 
   180	-124.2137	-52.1031	-1.6097	-3.8662	-10.7193	-7.5491	 
   181	-124.4034	-52.1450	-0.3020	-5.7735	-11.2485	-7.6536	 
   182	-124.4808	-52.1914	 0.1110	-6.3758	-666.2242	947.4748	 
   183	-124.5583	-52.2378	-2.3584	-4.5268	-666.8825	947.7178	 
   184	-124.6705	-52.2334	-3.8944	-3.9597	-532.9677	751.4459	 
   185	-124.5195	-52.2146	-2.0013	-4.1714	-532.2363	751.1758	 
   186	-123.9116	-52.0655	 0.1110	-6.3758	-526.3119	748.9882	 
   187	-123.8729	-52.0424	-2.6211	-5.8167	-8.9766	-7.1431	 
   188	-123.7955	-51.9960	-4.0282	-6.2342	-8.8776	-6.7299	 
   189	-123.3734	-51.8149	-6.4982	-7.5712	-6.9283	-5.9878	 
   190	-123.2495	-51.5973	-5.3883	-8.3933	-7.0402	-5.9840	 
   191	-123.3269	-51.6437	-6.1197	-8.1233	-7.8750	-6.2005	 
   192	-123.5941	-51.7320	-3.4994	-8.6785	-8.0987	-6.1928	 
   193	-123.7490	-51.8248	-5.8826	-5.9993	-7.9825	-6.1233	 
   194	-123.9387	-51.8667	-7.5131	-4.4976	-8.2450	-6.1388	 
   195	-124.2059	-51.9551	-7.4186	-5.4321	-8.7742	-6.2433	 
   196	-124.1672	-51.9319	-3.8654	-9.8178	-8.7742	-6.2433	 
   197	-123.4121	-51.8381	-7.0056	-6.0344	-5.1383	-5.4118	 
   198	-123.4896	-51.8844	-7.1001	-5.0999	-6.4593	-5.6362	 
   199	-123.7994	-52.0700	-4.7383	-6.8716	-7.7458	-5.9108	 
   200	-123.8729	-52.0424	-3.6153	-6.8365	-7.1865	-5.9299	 
   201	-123.9116	-52.0655	-4.7383	-6.8716	-7.3027	-5.9995	 
   202	-124.0627	-52.0843	-2.7894	-8.0411	-8.3612	-6.2084	 
   203	-124.2137	-52.1031	-4.0282	-6.2342	-8.6236	-6.2239	 
   204	-124.3685	-52.1958	-6.7085	-4.7947	-8.6968	-6.1969	 
   205	-124.4073	-52.2190	-4.4198	-6.5394	-8.8086	-6.1931	 
   206	-124.4808	-52.1914	-4.8327	-5.9371	-9.2518	-6.1044	 
   207	-124.4769	-52.1174	-6.6872	-5.7022	-9.3550	-5.9538	 
   208	-123.6445	-51.9772	-5.1512	-6.2693	-5.3491	-5.1840	 
   209	-123.6058	-51.9540	-5.8826	-5.9993	-6.4162	-5.5397	 
   210	-123.9504	-52.0887	-5.5642	-5.6671	-8.0470	-5.9495	 
   211	-124.0665	-52.1583	-1.0852	-6.3839	-7.0272	-5.7638	 
   212	-124.0317	-52.2091	-2.6425	-4.9092	-7.1477	-5.9068	 
   213	-124.1827	-52.2279	-0.7493	-5.1210	-8.3181	-6.1118	 
   214	-124.2602	-52.2743	-1.1065	-5.4764	-8.5849	-6.2007	 
   215	-124.4112	-52.2930	-3.8386	-4.9173	-9.1959	-6.4249	 
   216	-124.5273	-52.3626	-3.0898	-4.2567	-9.7295	-6.6027	 
   217	-124.4499	-52.3162	-2.2295	-5.5115	-9.6477	-6.4830	 
   218	-123.8807	-52.1903	-2.1738	-6.4692	-6.0505	-5.6747	 
   219	-123.9233	-52.2875	-0.6936	-6.0787	-6.8379	-5.7213	 
   220	-124.2253	-52.3251	-2.3584	-4.5268	-7.6684	-5.8645	 
   221	-124.1866	-52.3019	 1.1612	-4.4021	-6.8422	-5.7947	 
   222	-124.1866	-52.3019	-1.2525	-3.5108	-7.1047	-5.8102	 
   223	-124.3763	-52.3438	 0.4124	-5.0627	-8.3568	-6.1350	 
   224	-124.4925	-52.4134	-2.3584	-4.5268	-8.8861	-6.2394	 
   225	-124.5660	-52.3858	 0.8597	-5.7152	-9.4584	-6.4404	 
   226	-124.6357	-52.2842	 0.3566	-4.1050	-9.9920	-6.6182	 
   227	-124.5622	-52.3118	-1.6097	-3.8662	-10.4137	-6.7999	 
   228	-124.0317	-52.2091	-1.3426	-2.5030	-7.4017	-6.4127	 
   229	-124.0317	-52.2091	 0.3566	-4.1050	-8.3440	-6.5520	 
   230	-124.2214	-52.2511	-0.0907	-3.4525	-9.3251	-6.7146	 
   231	-124.1479	-52.2787	 0.3566	-4.1050	-8.3784	-6.5019	 
   232	-124.1440	-52.2047	-0.3922	-4.7656	-8.1934	-6.5327	 
   233	-124.2214	-52.2511	-0.4479	-3.8079	-9.5101	-6.6837	 
   234	-124.4112	-52.2930	-3.6661	-2.6196	-9.7725	-6.6993	 
   235	-124.5622	-52.3118	-1.6097	-3.8662	-10.0393	-6.7882	 
   236	-124.6009	-52.3350	-0.7493	-5.1210	-10.3836	-6.9234	 
   237	-124.4112	-52.2930	-2.3584	-4.5268	-9.4025	-6.7609	 
   238	-123.9233	-52.2875	-0.3922	-4.7656	-6.9155	-6.4048	 
   239	-124.0356	-52.2831	-0.7493	-5.1210	-8.9120	-6.6797	 
   240	-124.1866	-52.3019	-0.8051	-4.1633	-9.1400	-6.7454	 
   241	-124.0743	-52.3063	-2.3584	-4.5268	-8.2021	-6.6794	 
   242	-124.1866	-52.3019	-3.0898	-4.2567	-9.2519	-6.7416	 
   243	-124.4150	-52.3670	-2.0013	-4.1714	-10.0824	-6.8847	 
   244	-124.5660	-52.3858	-4.3418	-3.3072	-10.1555	-6.8577	 
   245	-124.6783	-52.3814	-0.0006	-4.4604	-10.2373	-6.9775	 
   246	-124.5660	-52.3858	-2.3584	-4.5268	-9.5962	-6.8768	 
   247	-123.9659	-52.3847	-1.5539	-4.8239	-6.7993	-6.3353	 
   248	-124.1130	-52.3295	-1.5539	-4.8239	-8.7227	-6.6371	 
   249	-124.3028	-52.3714	-1.1065	-5.4764	-9.3681	-6.8111	 
   250	-124.2292	-52.3991	-0.7493	-5.1210	-8.3871	-6.6486	 
   251	-124.2679	-52.4223	-2.0013	-4.1714	-9.2175	-6.7918	 
   252	-124.4577	-52.4642	-1.6097	-3.8662	-10.1598	-6.9311	 
   253	-124.6087	-52.4830	-1.9111	-5.1793	-10.2717	-6.9273	 
   254	-124.6474	-52.5062	-3.8944	-3.9597	-10.3879	-6.9968	 
   255	-124.7984	-52.5249	-3.0341	-5.2144	-10.9559	-7.1244	 
   256	-124.4228	-52.5150	-1.4981	-5.7816	-9.0282	-6.7492	 
   257	-124.0434	-52.4311	-1.6097	-3.8662	-7.7503	-6.6214	 
   258	-124.3067	-52.4454	-2.4142	-3.5691	-9.8673	-7.0391	 
   259	-124.3454	-52.4686	-1.9111	-5.1793	-9.6005	-6.9502	 
   260	-124.2331	-52.4731	-5.8777	-2.7400	-8.9293	-6.9732	 
   261	-124.4228	-52.5150	-3.2187	-3.2721	-10.4309	-7.0934	 
   262	-124.6474	-52.5062	 0.1110	-6.3758	-10.8827	-7.1514	 
   263	-124.7248	-52.5526	-1.1065	-5.4764	-10.7020	-7.2556	 
   264	-124.8023	-52.5989	-1.4981	-5.7816	-10.9258	-7.2480	 
   265	-124.9533	-52.6177	-2.1738	-6.4692	-11.6099	-7.4452	 
   266	-124.8410	-52.6221	-3.0341	-5.2144	-11.4550	-7.3524	 
   267	-124.2370	-52.5471	-3.8944	-3.9597	-8.0601	-6.8068	 
   268	-124.3144	-52.5934	-1.9111	-5.1793	-9.9878	-7.1820	 
   269	-124.5390	-52.5846	-3.8944	-3.9597	-10.8139	-7.2518	 
   270	-124.4267	-52.5890	-2.6425	-4.9092	-9.8673	-7.0391	 
   271	-124.4654	-52.6122	-0.3020	-5.7735	-10.4396	-7.2401	 
   272	-124.6900	-52.6034	-2.3584	-4.5268	-11.5325	-7.3988	 
   273	-124.8797	-52.6453	-3.8386	-4.9173	-11.6099	-7.4452	 
   274	-124.9572	-52.6917	-3.4470	-4.6121	-11.6443	-7.3950	 
   275	-125.0694	-52.6873	-2.6425	-4.9092	-11.8724	-7.4607	 
   276	-125.1469	-52.7337	-1.0852	-6.3839	-12.5910	-7.6077	 
   277	-124.5816	-52.6818	-2.6425	-4.9092	-9.6822	-7.0700	 
   278	-124.3532	-52.6166	-3.0898	-4.2567	-9.2348	-7.0853	 
   279	-124.6164	-52.6310	-2.4142	-3.5691	-11.2442	-7.5802	 
   280	-124.4693	-52.6862	-2.4142	-3.5691	-10.8225	-7.3986	 
   281	-124.4654	-52.6122	-3.8944	-3.9597	-9.9189	-7.2824	 
   282	-124.6590	-52.7282	-3.4470	-4.6121	-11.0463	-7.3909	 
   283	-124.9223	-52.7425	-1.9111	-5.1793	-11.4981	-7.4490	 
   284	-124.9998	-52.7889	-5.8777	-2.7400	-11.5755	-7.4954	 
   285	-125.1508	-52.8077	-1.1065	-5.4764	-11.9542	-7.5804	 
   286	-125.2669	-52.8772	-3.0341	-5.2144	-12.5566	-7.6579	 
   287	-124.8875	-52.7933	-0.6936	-6.0787	-10.4051	-7.2903	 
   288	-124.4345	-52.7370	-1.5539	-4.8239	-8.4431	-6.9653	 
   289	-124.6242	-52.7790	-1.5539	-4.8239	-10.5601	-7.3830	 
   290	-124.7752	-52.7977	-2.8058	-3.8743	-10.5170	-7.2865	 
   291	-124.8101	-52.7469	-0.4479	-3.8079	-9.6866	-7.1433	 
   292	-124.8139	-52.8209	-3.5372	-3.6043	-10.4051	-7.2903	 
   293	-124.8836	-52.7193	-3.0341	-5.2144	-10.9301	-7.3214	 
   294	-124.9223	-52.7425	-1.3692	-6.7663	-10.8569	-7.3484	 
   295	-125.0346	-52.7381	-3.8386	-4.9173	-11.0419	-7.3175	 
   296	-125.0772	-52.8353	-4.6989	-3.6626	-11.6142	-7.5185	 
   297	-124.9611	-52.7657	-3.8386	-4.9173	-10.5213	-7.3599	 
   298	-124.4693	-52.6862	-3.0898	-4.2567	-7.4534	-6.6560	 
   299	-124.5468	-52.7326	-3.4470	-4.6121	-9.3079	-7.0582	 
   300	-124.6978	-52.7513	-2.3584	-4.5268	-9.7640	-7.1897	 
   301	-124.5429	-52.6586	-2.6211	-5.8167	-8.8948	-7.0234	 
   302	-124.6164	-52.6310	-2.6425	-4.9092	-9.6565	-7.2669	 
   303	-124.7752	-52.7977	-3.0341	-5.2144	-10.4740	-7.1899	 
   304	-124.9611	-52.7657	-3.5372	-3.6043	-10.4740	-7.1899	 
   305	-124.9998	-52.7889	-2.2295	-5.5115	-10.7063	-7.3290	 
   306	-125.1508	-52.8077	-3.8386	-4.9173	-11.0850	-7.4141	 
   307	-125.2321	-52.9280	-1.4981	-5.7816	-11.3431	-7.3563	 
   308	-124.7365	-52.7745	-2.3584	-4.5268	-7.8708	-6.7643	 
   309	-124.4345	-52.7370	-1.9111	-5.1793	-7.4878	-6.6058	 
   310	-124.3958	-52.7138	-1.9111	-5.1793	-7.2941	-6.4899	 
   311	-124.3570	-52.6906	-3.4470	-4.6121	-6.9886	-6.3778	 
   312	-124.3532	-52.6166	-4.9830	-4.0450	-6.8380	-6.3585	 
   313	-124.4693	-52.6862	-4.1571	-5.2495	-7.8578	-6.5442	 
   314	-124.4654	-52.6122	-5.1463	-3.0101	-8.6452	-6.5908	 
   315	-124.5777	-52.6078	-4.2516	-4.3150	-8.3053	-6.5289	 
   316	-124.6939	-52.6774	-1.8166	-6.1138	-8.6495	-6.6641	 
   317	-124.6939	-52.6774	-3.8386	-4.9173	-9.0239	-6.6758	 
   318	-124.2796	-52.6442	-3.8944	-3.9597	-6.4120	-6.1035	 
   319	-124.1634	-52.5747	-2.3584	-4.5268	-6.7219	-6.2889	 
   320	-124.4267	-52.5890	-2.2295	-5.5115	-9.5230	-6.9038	 
   321	-124.5042	-52.6354	-3.0341	-5.2144	-9.1444	-6.8188	 
   322	-124.4693	-52.6862	-3.8386	-4.9173	-8.6194	-6.7877	 
   323	-124.5855	-52.7558	-3.4470	-4.6121	-9.7210	-7.0931	 
   324	-124.8139	-52.8209	-4.2516	-4.3150	-10.2115	-7.1744	 
   325	-124.9301	-52.8905	-0.2806	-6.6810	-10.2158	-7.2478	 
   326	-125.0424	-52.8861	-3.5372	-3.6043	-10.6332	-7.3560	 
   327	-124.7791	-52.8717	-1.4981	-5.7816	-9.2692	-7.0351	 
   328	-124.4384	-52.8110	-0.8051	-4.1633	-7.6513	-6.8453	 
   329	-124.6320	-52.9270	 0.1110	-6.3758	-10.0007	-7.4022	 
   330	-124.6707	-52.9501	-1.6097	-3.8662	-9.8544	-7.4562	 
   331	-124.5894	-52.8298	-3.9502	-3.0020	-9.6737	-7.5604	 
   332	-124.6668	-52.8761	-2.0013	-4.1714	-10.7796	-7.9392	 
   333	-124.8178	-52.8949	-1.1065	-5.4764	-11.3389	-7.9201	 
   334	-124.8178	-52.8949	-2.3584	-4.5268	-11.4164	-7.9664	 
   335	-125.0076	-52.9369	-3.0898	-4.2567	-11.3777	-7.9432	 
   336	-124.8604	-52.9921	-4.2516	-4.3150	-11.0334	-7.8080	 
   337	-124.3648	-52.8386	-1.9111	-5.1793	-8.4389	-7.5291	 
   338	-124.4423	-52.8850	-3.4470	-4.6121	-10.0653	-7.8656	 
   339	-124.5933	-52.9038	-3.5372	-3.6043	-10.5816	-7.7499	 
   340	-124.5158	-52.8574	-3.0898	-4.2567	-9.7512	-7.6067	 
   341	-124.5546	-52.8806	-3.0898	-4.2567	-10.3966	-7.7807	 
   342	-124.7404	-52.8485	-3.4470	-4.6121	-11.3045	-7.9703	 
   343	-124.8178	-52.8949	-3.8944	-3.9597	-11.4551	-7.9896	 
   344	-124.8953	-52.9413	-5.4303	-3.3925	-11.4207	-8.0398	 
   345	-125.0114	-53.0109	-4.1571	-5.2495	-11.9930	-8.2408	 
   346	-124.6359	-53.0009	-1.0852	-6.3839	-10.4784	-7.9005	 
   347	-124.2564	-52.9170	-3.8386	-4.9173	-8.8562	-7.6373	 
   348	-124.4810	-52.9082	-3.8944	-3.9597	-10.5559	-7.9468	 
   349	-124.5197	-52.9314	-4.3418	-3.3072	-10.2590	-7.9815	 
   350	-124.4810	-52.9082	-3.4257	-5.5196	-9.8760	-7.8230	 
   351	-124.5972	-52.9778	-4.5700	-4.6473	-11.0464	-8.0281	 
   352	-124.7482	-52.9965	-0.6378	-7.0363	-11.4594	-8.0630	 
   353	-124.8604	-52.9921	-1.8166	-6.1138	-11.6445	-8.0322	 
   354	-124.8643	-53.0661	-2.9783	-6.1721	-11.8381	-8.1481	 
   355	-125.0502	-53.0341	-3.4257	-5.5196	-12.2942	-8.2795	 
   356	-125.1276	-53.0804	-3.4470	-4.6121	-12.8235	-8.3839	 
   357	-124.7908	-53.0937	-4.1571	-5.2495	-11.1582	-8.0243	 
   358	-124.3726	-52.9866	-2.8058	-3.8743	-9.0456	-7.6799	 
   359	-124.5236	-53.0054	-5.3015	-4.3772	-10.7839	-8.0126	 
   360	-124.6359	-53.0009	-3.0341	-5.2144	-10.8140	-7.8890	 
   361	-124.5972	-52.9778	-1.4981	-5.7816	-10.6333	-7.9932	 
   362	-124.6359	-53.0009	-3.2187	-3.2721	-11.9973	-8.3142	 
   363	-124.8256	-53.0429	-3.4470	-4.6121	-13.2452	-8.5656	 
   364	-124.9379	-53.0385	-1.2525	-3.5108	-14.7210	-8.8827	 
   365	-124.9379	-53.0385	-2.5044	-2.5613	-15.1427	-9.0644	 
   366	-124.9379	-53.0385	 0.8040	-4.7575	-15.8743	-9.4315	 
   367	-124.9340	-52.9645	-2.5945	-1.5534	-16.7177	-9.7947	 
   368	-124.7482	-52.9965	-1.6998	-2.8584	-16.3132	-9.9066	 
   369	-124.3300	-52.8894	 1.1612	-4.4021	-13.1894	-9.5233	 
   370	-124.6320	-52.9270	-2.4142	-3.5691	-15.3451	-9.9642	 
   371	-124.9031	-53.0893	-2.6425	-4.9092	-15.9862	-10.0648	 
   372	-124.7172	-53.1213	-5.4483	-7.5090	-15.4527	-9.8870	 
   373	-124.6359	-53.0009	-5.7067	-8.7256	-17.2685	-10.2660	 
   374	-124.4771	-52.8342	-8.7869	-5.8264	-19.1574	-10.6181	 
   375	-124.0860	-52.5283	-8.4991	-8.5566	-20.0740	-10.9543	 
   376	-123.7375	-52.3196	-7.3291	-10.2630	-21.2530	-11.3061	 
   377	-123.5013	-52.1064	-9.8031	-9.7618	-22.3244	-11.7351	 
   378	-123.1566	-51.9717	-12.5445	-13.1726	-23.6713	-12.3998	 
   379	-122.9669	-51.9297	-16.5032	-14.4096	-24.3684	-12.8171	 
   380	-122.5991	-52.0678	-15.2598	-14.8687	-22.7161	-12.6775	 
   381	-122.7579	-52.2346	-17.6479	-15.4488	-23.8995	-13.1027	 
   382	-123.1413	-52.3925	-17.4025	-14.4524	-24.2824	-13.2611	 
   383	-123.0638	-52.3461	-15.8194	-16.1240	-24.0974	-13.2920	 
   384	-123.2961	-52.4852	-18.8913	-14.9896	-24.4330	-13.2805	 
   385	-123.6059	-52.6708	-18.5472	-15.4915	-25.3496	-13.6168	 
   386	-123.4471	-52.5040	-18.4785	-16.2291	-25.6551	-13.7288	 
   387	-122.8585	-52.0082	-21.7183	-15.4076	-25.9175	-13.7444	 
   388	-120.8062	-50.7790	-23.1646	-19.0342	-26.8986	-13.9069	 
   389	-120.3493	-50.6487	-21.9944	-19.4663	-27.5568	-13.6638	 
   390	-119.0018	-49.9850	-19.3785	-20.0949	-25.1300	-13.0606	 
   391	-117.9911	-49.3081	-16.8267	-18.6382	-25.7497	-13.4315	 
   392	-117.4142	-49.0342	-11.1636	-14.4696	-26.1370	-13.6634	 
   393	-117.1122	-48.9967	-8.9215	-12.5612	-24.1576	-13.0448	 
   394	-117.0773	-49.0475	 1.0954	-11.2373	-21.8599	-12.7313	 
   395	-117.1509	-49.0199	19.7833	-4.1566	-15.1346	-11.4663	 
   396	-117.5691	-49.1270	37.9299	 7.6970	-4.8807	-8.6555	 
   397	-117.8594	-48.9425	52.4704	16.6840	-21.7002	-10.0165	 
   398	-117.6812	-48.4058	60.8587	29.7044	-38.5289	-14.7101	 
   399	-117.1079	-47.4891	80.1138	32.4525	-45.8095	-17.1569	 
   400	-115.6055	-46.7327	91.7821	29.4558	-47.1992	-16.6437	 
   401	-115.8571	-46.5250	94.1910	25.9425	-45.9895	-13.2296	 
   402	-117.1078	-46.7724	61.8911	28.1987	-40.8114	-2.6971	 
   403	-117.1735	-46.5968	28.5635	10.4434	-31.9191	13.1734	 
   404	-115.2530	-45.7332	 5.8268	 3.7707	-11.5896	32.2799	 
   405	-114.5365	-44.9458	-11.9578	-5.1054	-5.1074	45.2920	 
   406	-111.3920	-42.2025	-13.5328	-5.8357	-3.7515	48.0149	 
   407	-109.4364	-40.6730	-7.2296	-7.3011	 0.8999	48.9586	 
   408	-108.3987	-40.1949	-7.4186	-5.4321	 4.0796	49.0215	 
   409	-108.2554	-40.3241	-5.6931	-4.6824	 6.3773	49.3350	 
   410	-109.1422	-40.7835	-6.6091	-2.4699	 6.9494	48.8988	 
   411	-110.1103	-41.3633	-8.1500	-5.1620	 7.2678	48.5939	 
   412	-110.9042	-42.1970	-8.9759	-3.9575	 7.2462	48.2270	 
   413	-111.1365	-42.3362	-9.1048	-2.9728	 7.1387	48.3042	 
   414	-111.6051	-42.6885	-10.0821	-6.2478	 6.2652	48.0645	 
   415	-112.3447	-43.2031	-16.8849	-7.5591	 7.2806	48.1768	 
   416	-112.9255	-43.5510	-16.2444	-10.6444	12.6330	47.0625	 
   417	-113.0999	-44.0137	-6.5927	-6.6367	19.2757	43.7475	 
   418	-113.5065	-44.6156	 9.1223	 1.9916	21.9645	41.8176	 
   419	-114.4320	-45.0982	25.3612	 4.9163	18.7110	37.9587	 
   420	-114.6139	-44.9922	35.1302	14.7282	 9.0975	31.4255	 
   421	-114.3351	-44.6818	39.6785	17.0969	 1.3256	24.4372	 
   422	-115.0786	-45.2705	42.3983	19.5036	-6.1579	18.5418	 
   423	-115.7717	-45.6139	38.9728	16.5328	-7.2900	15.8112	 
   424	-116.5075	-46.0545	34.8038	18.0723	-7.0449	14.8961	 
   425	-116.4456	-46.3041	42.6761	 9.6178	-4.9235	16.0244	 
   426	-115.6906	-46.2103	41.9498	13.7843	-1.6059	17.1608	 
   427	-115.6131	-46.1639	36.3179	15.8639	-3.2454	15.9670	 
   428	-115.7602	-46.1087	38.3402	15.9418	-4.3599	15.4415	 
   429	-115.6906	-46.2103	41.9323	12.2164	-3.9727	15.6733	 
   430	-115.7680	-46.2567	42.6724	12.7303	-6.3394	14.1858	 
   431	-115.8416	-46.2291	40.3112	17.6879	-11.6150	11.5234	 
   432	-115.9461	-46.0766	47.7715	14.9331	-17.3811	 8.7797	 
   433	-115.8338	-46.0811	49.2522	17.8723	-22.1102	 6.5152	 
   434	-114.9665	-45.9916	55.7541	21.0565	-21.9510	 6.6813	 
   435	-114.7420	-46.0005	58.2763	25.1854	-25.6862	 4.1623	 
   436	-115.0478	-46.1120	59.2696	21.7450	-28.5865	 2.4969	 
   437	-115.1679	-46.2556	61.9975	21.7498	-28.4703	 2.5665	 
   438	-115.2105	-46.3528	56.4478	25.8606	-28.7974	 2.0875	 
   439	-115.3615	-46.3715	61.0429	25.2134	-30.3379	 1.3070	 
   440	-115.5473	-46.3395	59.2398	23.7801	-31.5255	 0.8084	 
   441	-115.4312	-46.2699	57.1453	28.8266	-31.6245	 1.0324	 
   442	-114.5252	-46.1573	74.8919	18.0004	-27.8419	 3.7213	 
   443	-114.4516	-46.1849	59.9163	28.9279	-28.8486	 4.3929	 
   444	-115.0556	-46.2600	65.8829	22.3766	-30.5049	 5.4544	 
   445	-115.1331	-46.3064	50.6343	22.9470	-26.4338	 9.8734	 
   446	-115.0905	-46.2092	38.3402	15.9418	-20.1466	15.1235	 
   447	-115.7022	-46.4323	10.8336	-4.4877	-11.2259	21.3128	 
   448	-115.1601	-46.1076	-14.5572	-8.0063	-3.8627	28.3396	 
   449	-115.4351	-46.3439	-23.4728	-10.2992	 2.3613	40.7724	 
   450	-113.9521	-45.9575	-26.6398	-11.4163	 0.2576	42.4863	 
   451	-112.4032	-45.0298	-25.0907	-10.4890	 4.4874	43.8856	 
   452	-112.2250	-44.4931	-23.3993	-8.4147	 8.3729	45.1496	 
   453	-111.0981	-43.7465	-19.9055	-8.0930	10.1673	45.7990	 
   454	-110.5443	-43.1999	-14.6560	-7.1452	10.1242	45.7024	 
   455	-110.4165	-42.9083	-15.0690	-6.5429	10.2576	45.4283	 
   456	-110.6837	-42.9967	-16.7040	-6.3890	10.4383	45.3241	 
   457	-111.0012	-43.3302	-15.4475	-5.9908	10.7609	45.0925	 
   458	-110.9393	-43.5798	-15.9469	-7.4932	 9.9733	43.7715	 
   459	-111.7486	-43.9928	-14.7892	-6.2339	 9.3407	43.1805	 
   460	-112.6624	-44.2534	-12.0523	-4.1709	 7.6191	40.5926	 
   461	-113.2394	-44.5273	 7.5083	-0.6735	 5.9659	35.3556	 
   462	-114.1261	-44.9867	27.4716	16.0193	-2.4257	27.9964	 
   463	-115.0128	-45.4461	43.1898	18.3492	-8.8289	23.9511	 
   464	-115.9848	-46.0998	55.6857	23.0684	-18.5457	16.2941	 
   465	-116.3489	-46.6045	58.1433	27.3711	-25.6075	10.5804	 
   466	-116.1050	-46.9602	64.7227	30.6016	-28.4523	 6.6830	 
   467	-117.0344	-47.5168	59.9163	28.9279	-33.0701	 1.2288	 
   468	-117.3015	-47.6051	60.8587	29.7044	-35.2262	-1.1236	 
   469	-116.7246	-47.3312	64.8983	25.9638	-35.3209	-1.4635	 
   470	-116.4574	-47.2429	67.8886	25.9841	-37.1240	-2.8967	 
   471	-116.4923	-47.1921	62.9235	26.6930	-39.4821	-4.2375	 
   472	-116.4923	-47.1921	58.8839	30.4336	-40.9796	-4.9215	 
   473	-115.8108	-47.0706	62.9235	26.6930	-38.6085	-3.3606	 
   474	-114.7538	-46.9392	68.9042	26.7336	-35.4329	-2.0968	 
   475	-114.5215	-46.8001	61.7667	30.5311	-37.8427	-3.6809	 
   476	-114.1381	-46.6422	62.6748	31.3578	-39.0001	-3.6658	 
   477	-113.7896	-46.4335	66.8563	27.4898	-39.1980	-3.2179	 
   478	-113.7431	-46.2623	61.5736	32.9639	-40.7083	-3.4849	 
   479	-113.4294	-46.0028	63.6215	32.2077	-37.0502	 0.8993	 
   480	-112.9609	-45.6505	71.0253	25.9504	-33.9128	 4.6886	 
   481	-111.8844	-45.1491	62.2626	36.4203	-32.5957	 7.3884	 
   482	-110.2505	-44.7439	71.0128	28.2789	-29.3942	 9.0924	 
   483	-110.0568	-44.6279	72.1058	29.0748	-30.7452	 8.9916	 
   484	-110.7307	-45.3181	60.1048	24.5102	-31.4247	10.7793	 
   485	-110.9786	-45.7533	24.1226	 7.9975	-27.9557	16.3953	 
   486	-110.7192	-45.8129	10.0000	 1.6675	-15.1707	25.3933	 
   487	-111.3814	-46.2812	-3.9710	 0.4542	-4.9069	35.9970	 
   488	-110.7386	-46.1829	-10.1880	 2.7499	-4.1490	39.3530	 
   489	-109.9759	-45.9411	-8.8497	 3.2678	-1.3563	40.4584	 
   490	-108.3728	-45.4110	-4.5726	 4.8370	 1.0276	41.6022	 
   491	-107.4978	-45.1736	-4.6323	 7.6328	 2.5336	41.7958	 
   492	-107.9895	-45.2531	-2.9019	11.6418	 2.8779	42.5682	 
   493	-108.1057	-45.3227	 9.3185	15.4882	 4.9310	46.3456	 
   494	-108.0669	-45.2995	 8.2945	15.8663	 4.1605	44.6810	 
   495	-109.0156	-45.5093	 4.1156	10.2501	 2.0688	41.5176	 
   496	-109.7628	-45.4551	 2.0882	 6.2757	 2.6886	42.5257	 
   497	-110.3164	-45.2850	 9.7482	12.6307	 3.2308	42.8502	 
   498	-110.1693	-45.3402	33.4873	18.5584	-6.4866	32.6445	 
   499	-109.4491	-45.1956	74.3306	30.6897	-21.2774	19.4019	 
   500	-110.1267	-45.2431	84.9180	45.5220	-35.2376	 6.9395	 
   501	-110.5061	-45.3270	98.2736	45.8005	-41.0255	 2.5547	 
   502	-111.2263	-45.4716	103.3163	45.7752	-44.1283	-0.0105	 
   503	-112.0239	-45.6627	101.3857	52.3355	-46.3573	-1.0616	 
   504	-112.1710	-45.6074	110.3379	43.1824	-47.6611	-1.6297	 
   505	-112.1323	-45.5842	93.0774	53.3793	-48.6810	-2.4526	 
   506	-111.5980	-45.4076	106.3482	37.6087	-48.5777	-2.6031	 
   507	-110.5410	-45.2762	92.0732	44.5666	-47.2481	-2.2320	 
   508	-110.5061	-45.3270	86.2219	46.7273	-47.9625	-2.9428	 
   509	-110.6184	-45.3226	98.2902	42.2710	-48.8403	-3.2559	 
   510	-110.4752	-45.4518	96.6728	44.6299	-49.1889	-3.4645	 
   511	-110.6997	-45.4429	84.9180	45.5220	-50.0796	-3.9977	 
   512	-110.8507	-45.4617	95.1353	36.9138	-50.7552	-4.0481	 
   513	-110.8934	-45.5589	82.3532	43.2080	-50.1871	-3.2833	 
   514	-110.5526	-45.4982	85.1750	39.0924	-48.8529	-1.5645	 
   515	-109.4569	-45.3436	95.1353	36.9138	-45.9784	 0.2978	 
   516	-109.1549	-45.3060	79.6470	44.2073	-45.1478	 1.0781	 
   517	-109.1123	-45.2089	85.0594	42.2087	-44.6442	 2.0167	 
   518	-108.6593	-45.1526	92.1101	35.0322	-42.4924	 4.2958	 
   519	-108.4696	-45.1106	80.0675	38.0172	-39.2777	 7.4943	 
   520	-108.8258	-45.4673	67.6748	33.1474	-35.3229	11.2067	 
   521	-109.5655	-45.9819	42.9809	28.7718	-30.4686	15.5990	 
   522	-110.2315	-46.5242	39.6785	17.0969	-27.6801	17.9053	 
   523	-110.7814	-46.9968	21.7480	10.1863	-26.8194	18.5621	 
   524	-110.0807	-47.2222	 1.1584	 3.8078	-22.7617	20.2123	 
   525	-108.5010	-47.1361	-2.3227	 2.4319	-15.4121	23.1960	 
   526	-107.6610	-47.5646	 3.9983	 4.4459	-12.5673	27.0933	 
   527	-106.4994	-47.5857	 3.5386	 8.0642	-13.3588	28.2477	 
   528	-106.2052	-47.6961	 9.8937	 8.1164	-12.2054	29.4336	 
   529	-106.5459	-47.7569	 8.7242	13.0088	-11.6460	30.0517	 
   530	-106.7744	-47.8220	 9.9287	11.2521	-11.6503	29.9783	 
   531	-106.8945	-47.9656	 8.9483	14.9127	-11.6804	30.1018	 
   532	-107.2739	-48.0495	 8.6991	16.3916	-11.6847	30.0285	 
   533	-106.7822	-47.9700	 5.3779	19.0049	-11.7234	30.0053	 
   534	-106.5963	-48.0020	10.1528	13.1560	-11.5384	29.9745	 
   535	-107.0532	-48.1323	11.9766	10.4959	-11.9774	29.4993	 
   536	-107.3591	-48.2439	10.8445	 7.7653	-12.6143	28.8349	 
   537	-108.0135	-48.5641	 2.9880	 8.8672	-13.3673	28.7381	 
   538	-109.1828	-48.6911	 4.0569	18.7805	-17.2740	29.6559	 
   539	-109.6125	-48.3034	18.8191	16.9278	-18.7409	31.3971	 
   540	-109.8485	-47.7998	32.8687	23.9221	-20.6172	29.3536	 
   541	-109.8252	-47.3558	55.9155	32.6917	-28.4923	23.1531	 
   542	-109.5812	-46.9947	68.5121	46.7446	-34.7754	16.7020	 
   543	-110.3440	-47.2365	89.3572	39.0474	-39.2038	11.9275	 
   544	-112.2955	-47.9753	82.3532	43.2080	-43.8428	 8.0180	 
   545	-114.4251	-48.5340	66.6736	63.1291	-49.4542	 4.0927	 
   546	-115.4085	-48.6930	93.3692	49.4482	-52.6903	 1.8017	 
   547	-115.6214	-48.4622	90.6961	43.3884	-54.9064	 0.3335	 
   548	-115.5749	-48.2910	87.5302	48.0059	-56.6966	-0.8796	 
   549	-115.6446	-48.1894	90.4558	46.9256	-57.9617	-1.4246	 
   550	-115.1141	-48.0867	80.5170	48.8339	-57.1010	-0.7678	 
   551	-114.1655	-47.8769	87.5302	48.0059	-54.8720	 0.2833	 
   552	-113.7822	-47.7190	80.8734	45.3662	-54.9580	 0.7274	 
   553	-113.3988	-47.5611	75.6073	47.3108	-54.6437	 1.6234	 
   554	-112.7135	-47.3656	77.0870	45.1526	-53.0041	 3.4544	 
   555	-112.4889	-47.3745	79.9088	41.0370	-51.4462	 5.1656	 
   556	-111.8036	-47.1790	67.0668	48.8526	-47.8743	 8.7195	 
   557	-111.4938	-46.9935	62.0493	46.1324	-43.3429	12.0691	 
   558	-111.7958	-47.0310	62.8915	40.1239	-40.8557	13.6995	 
   559	-111.7223	-47.0586	56.9623	39.6894	-37.8091	15.3108	 
   560	-110.9789	-47.1868	60.7705	40.9071	-35.7867	16.0259	 
   561	-110.9597	-47.5336	61.6183	41.9809	-37.9771	14.3608	 
   562	-111.0875	-47.8251	58.2239	44.6212	-36.6817	15.4193	 
   563	-110.7043	-48.3840	21.1603	19.8866	-34.0608	18.6871	 
   564	-108.6290	-48.1444	11.8685	 7.3872	-30.4463	19.7889	 
   565	-109.5313	-48.8998	-2.8164	 8.6491	-22.9288	23.7225	 
   566	-109.3881	-49.0290	-3.4662	 7.7645	-22.8811	25.8040	 
   567	-108.7493	-49.0047	 1.7832	 8.7123	-21.9559	26.2870	 
   568	-108.3001	-49.0224	 2.6529	11.4274	-23.2126	24.6145	 
   569	-107.9207	-48.9385	 5.2474	11.7063	-22.9503	23.9929	 
   570	-108.2614	-48.9992	 2.0000	17.4784	-22.4124	24.2440	 
   571	-108.5247	-49.0136	 6.1300	14.6414	-22.7179	24.1319	 
   572	-108.5634	-49.0368	 9.9723	14.5346	-23.1009	23.9735	 
   573	-108.9351	-48.9727	 7.2705	16.2444	-23.0836	24.2670	 
   574	-109.4268	-49.0522	 4.7240	19.9585	-23.4365	23.9850	 
   575	-110.1044	-49.0997	 8.5018	20.0254	-24.5854	23.5096	 
   576	-110.6697	-49.1516	10.8475	23.6947	-26.4744	22.5204	 
   577	-110.3677	-49.1140	13.5547	28.4300	-27.0296	21.9757	 
   578	-110.3986	-48.9892	15.5557	29.4154	-28.0580	21.6433	 
   579	-110.7316	-48.9020	19.2127	28.0650	-29.1853	21.5348	 
   580	-110.9444	-48.6711	24.3325	26.1745	-30.1836	21.0788	 
   581	-111.1225	-48.4911	22.4910	25.9924	-30.8678	20.8816	 
   582	-111.3702	-48.2095	17.1386	27.1067	-32.6449	20.5258	 
   583	-111.8888	-47.3734	12.3496	26.3636	-37.0810	20.0648	 
   584	-112.6244	-47.0973	14.7250	27.9979	-38.8363	21.3501	 
   585	-113.4646	-47.3855	42.3449	33.2048	-37.0849	22.5401	 
   586	-113.0968	-47.5235	55.5760	58.0435	-34.6841	22.0659	 
   587	-110.8550	-46.9692	69.4804	47.9614	-33.8666	21.9889	 
   588	-109.8522	-47.1570	56.1029	45.4044	-38.3293	17.2646	 
   589	-110.2589	-47.7589	63.1793	37.3938	-41.6691	12.5755	 
   590	-110.8863	-48.2780	44.2017	45.7133	-44.3506	 7.6432	 
   591	-112.0092	-48.9505	38.2154	39.2276	-43.8090	 4.7819	 
   592	-112.8495	-49.2387	33.3746	37.6041	-41.7740	 3.8056	 
   593	-113.1980	-49.4474	32.1561	32.7689	-36.3567	 5.0663	 
   594	-112.4778	-49.3028	35.5503	29.4915	-29.4030	 7.6713	 
   595	-111.9047	-49.1029	32.3488	27.7874	-30.9136	 6.1300	 
   596	-112.7140	-49.5159	30.0893	24.9484	-31.3529	 3.7434	 
   597	-114.6114	-50.6523	31.9731	20.7668	-28.6211	 1.2728	 
   598	-113.7597	-50.8588	25.1240	25.0201	-30.2914	-2.9833	 
   599	-112.0522	-50.4812	25.2407	27.6384	-32.1635	-5.5906	 
   600	-111.3939	-50.0870	23.8075	25.5062	-33.7345	-8.1591	 
   601	-110.4568	-49.3824	25.2407	27.6384	-41.9491	-12.5100	 
   602	-108.9970	-48.7231	27.2463	30.6086	-47.3365	-14.5314	 
   603	-107.5837	-48.2350	31.6224	31.9539	-44.1479	-13.0475	 
   604	-106.7705	-47.7480	39.4791	32.1264	-55.8389	-16.1523	 
   605	-106.4839	-47.2897	41.3470	34.6603	-63.2914	-17.7110	 
   606	-106.5458	-47.0401	41.5799	37.9853	-62.0093	-18.1469	 
   607	-107.0607	-46.8468	28.7699	33.0072	-46.4718	-15.7128	 
   608	-105.9419	-47.6818	-6.1142	21.1868	-26.7679	-5.3339	 
   609	-106.3177	-48.4085	-10.0593	23.9930	30.6097	47.7713	 
   610	-107.3476	-48.7386	-19.5235	 9.8330	24.1870	54.1911	 
   611	-107.9594	-48.9617	 5.8000	21.7352	15.1627	45.6037	 
   612	-107.3361	-49.2334	24.9883	35.4157	-16.0564	29.3937	 
   613	-107.9557	-49.6045	38.2383	46.6034	-28.2079	25.4470	 
   614	-108.9004	-49.7403	50.0322	47.6461	-31.1252	24.7625	 
   615	-109.6710	-50.1301	51.8083	42.9045	-39.0401	12.8042	 
   616	-110.3137	-50.2284	41.7491	45.3071	-56.5038	-5.2240	 
   617	-110.6776	-50.0163	43.9508	38.2718	-74.0435	-15.6524	 
   618	-111.0337	-49.6563	41.3470	34.6603	-81.6642	-19.4354	 
   619	-111.6222	-49.4353	39.7379	35.2545	-85.2702	-21.0276	 
   620	-111.1884	-49.0323	38.8574	43.7885	-85.3349	-22.1282	 
   621	-110.2939	-48.4249	41.7491	45.3071	-82.3619	-23.0386	 
   622	-109.7904	-47.4066	49.6091	39.8183	-83.6228	-24.1473	 
   623	-109.6005	-46.6479	47.7806	40.4935	-83.6659	-24.2439	 
   624	-109.0002	-45.9300	49.2900	36.3002	-81.4370	-23.8299	 
   625	-109.0698	-45.8284	42.3681	42.4921	-82.8053	-24.2243	 
   626	-109.3680	-45.7920	41.0942	40.5261	-84.5781	-24.5068	 
   627	-109.5151	-45.7368	43.5037	40.8358	-85.6710	-24.6654	 
   628	-109.5151	-45.7368	39.4428	44.8468	-86.5272	-24.6117	 
   629	-109.3176	-45.5468	38.2383	46.6034	-84.9566	-23.9547	 
   630	-108.2528	-45.2674	44.1235	41.8439	-73.6659	-21.3019	 
   631	-107.9430	-45.0819	44.6049	39.2297	-77.1856	-22.0638	 
   632	-107.8965	-44.9107	45.4061	43.9567	-81.2777	-23.0267	 
   633	-108.7252	-45.6937	30.2634	35.5294	-61.9492	-19.0312	 
   634	-106.9097	-46.8280	-15.3285	 9.3710	-25.8207	-1.9354	 
   635	-106.9021	-47.3968	-39.2837	-2.1370	32.1802	47.7911	 
   636	-107.8005	-48.0782	-43.5829	-6.6218	38.5032	60.6371	 
   637	-109.4617	-49.0014	-43.2211	-4.9186	31.7825	60.7198	 
   638	-110.7123	-49.2487	-16.8426	11.5793	18.1846	53.1465	 
   639	-110.0423	-48.6325	-4.5728	27.0648	16.2866	50.7362	 
   640	-109.8526	-48.5905	 3.9994	33.6826	20.5595	52.2321	 
   641	-110.8012	-48.8003	 9.8779	38.9712	-10.3539	36.7714	 
   642	-112.1332	-49.1681	37.6874	45.4949	-42.5705	23.9285	 
   643	-113.3760	-49.2674	41.4968	53.7215	-58.0359	15.7328	 
   644	-114.8977	-49.6771	46.6105	42.2000	-69.7243	 3.7810	 
   645	-115.9160	-49.7853	39.8977	38.6064	-83.4998	-10.6237	 
   646	-116.4231	-49.4440	38.2154	39.2276	-88.6860	-18.1170	 
   647	-116.1055	-49.1105	36.0475	42.3896	-87.5288	-19.4065	 
   648	-113.9760	-48.5517	39.4119	41.1473	-84.8827	-19.5214	 
   649	-113.6158	-48.1210	41.7491	45.3071	-90.0765	-22.0641	 
   650	-113.6041	-47.8990	42.3732	46.3885	-92.5336	-23.8181	 
   651	-113.5963	-47.7510	38.7893	47.7119	-92.2971	-24.2428	 
   652	-113.6699	-47.7234	46.0302	45.0381	-92.6887	-24.5480	 
   653	-113.9641	-47.6130	33.6963	55.1401	-93.7859	-24.7801	 
   654	-114.2971	-47.5257	49.8335	43.6337	-94.8186	-25.1859	 
   655	-114.6726	-47.5356	46.0302	45.0381	-95.4597	-25.2865	 
   656	-114.3706	-47.4981	42.9973	47.4700	-92.5467	-24.6754	 
   657	-113.4995	-47.3347	39.8955	50.0022	-87.7878	-23.8088	 
   658	-113.7240	-47.3258	41.7491	45.3071	-89.8316	-24.2536	 
   659	-113.9912	-47.4142	44.7820	42.8752	-90.6233	-24.3736	 
   660	-113.9873	-47.3402	41.1981	44.1986	-89.7585	-24.2806	 
   661	-113.8595	-47.0486	34.8007	47.8728	-90.7008	-24.4199	 
   662	-113.6116	-46.6135	37.0339	48.3601	-91.9443	-24.5980	 
   663	-113.4024	-46.2015	39.3402	48.8204	-93.1405	-24.6061	 
   664	-113.3172	-46.0072	39.3402	48.8204	-94.0785	-24.6721	 
   665	-112.3259	-45.7002	44.7820	42.8752	-87.4908	-23.2063	 
   666	-111.5670	-45.5324	36.3116	51.3256	-85.8772	-23.0899	 
   667	-111.6793	-45.5279	44.2017	45.7133	-88.2524	-23.4499	 
   668	-111.5244	-45.4352	38.0670	50.6774	-88.2394	-23.2297	 
   669	-111.2960	-45.3700	41.1687	48.1452	-88.0157	-23.2374	 
   670	-111.1681	-45.0785	43.5776	44.6319	-89.0613	-23.2261	 
   671	-111.2997	-44.7272	32.8008	52.6220	-89.9261	-23.3191	 
   672	-111.0827	-44.1673	38.6222	51.8593	-86.5786	-22.9434	 
   673	-111.1331	-44.4125	29.7739	41.1827	-61.8325	-15.7758	 
   674	-109.1897	-45.2552	-3.8845	26.0610	-24.8607	 0.4090	 
   675	-109.1627	-45.4540	-17.7917	21.4881	23.0440	39.2075	 
   676	-110.7966	-45.8593	-21.6259	18.5558	19.0485	48.1421	 
   677	-110.9554	-46.0261	-11.4535	23.1584	-3.7099	40.4653	 
   678	-111.0833	-46.3176	11.6673	36.3613	-26.3220	32.7346	 
   679	-110.4018	-46.1962	35.8188	62.0030	-47.7039	22.4130	 
   680	-110.8200	-46.3033	73.8410	58.5708	-56.9978	21.9466	 
   681	-112.5547	-47.1989	62.2554	66.7847	-60.2202	23.6987	 
   682	-113.7047	-47.6726	53.4187	49.3193	-67.2489	10.9259	 
   683	-113.8480	-47.5434	46.5699	54.8470	-81.3650	-6.7266	 
   684	-114.2545	-47.4285	45.1246	56.9550	-89.8728	-14.1553	 
   685	-114.6958	-47.2628	47.1725	56.1987	-90.4021	-14.8970	 
   686	-114.7382	-46.6433	37.2985	59.8448	-90.6430	-14.5456	 
   687	-115.9500	-46.1506	39.2002	59.1426	-94.0597	-16.0953	 
   688	-117.9438	-45.5531	37.7666	55.0989	-96.3835	-18.1234	 
   689	-118.7025	-45.0041	40.9372	52.4663	-97.1409	-18.9308	 
   690	-116.7083	-44.1682	40.1203	55.7292	-87.8684	-17.5568	 
   691	-115.0781	-43.1202	44.7405	51.0619	-86.1216	-18.3518	 
   692	-114.7101	-42.5415	41.4968	53.7215	-88.1914	-19.2368	 
   693	-114.6171	-42.1991	39.1087	53.1415	-88.0236	-19.5611	 
   694	-114.3770	-41.9120	44.1809	49.8067	-88.1097	-19.7542	 
   695	-114.5938	-41.7551	41.4968	53.7215	-90.0374	-20.1294	 
   696	-114.9306	-41.7419	38.2186	56.4314	-91.7413	-20.5123	 
   697	-115.1204	-41.7838	34.5616	57.7818	-92.7998	-20.7211	 
   698	-114.0595	-41.5784	37.7666	55.0989	-83.9833	-18.8415	 
   699	-113.5290	-41.4758	40.9372	52.4663	-83.3938	-18.9842	 
   700	-113.2153	-41.2162	39.1087	53.1415	-85.9669	-19.5334	 
   701	-113.0914	-40.9987	37.7666	55.0989	-86.9136	-19.7461	 
   702	-113.0062	-40.8043	37.2802	53.8167	-86.9480	-19.6959	 
   703	-112.8783	-40.5127	39.8955	50.0022	-88.8843	-20.2178	 
   704	-113.4010	-40.4674	34.1096	56.4493	-89.8697	-20.4537	 
   705	-113.6604	-40.4078	37.5849	49.4686	-89.8352	-20.5039	 
   706	-113.0177	-40.3095	30.9777	59.1051	-81.4575	-18.4622	 
   707	-112.4137	-40.2344	30.1855	56.4365	-76.7674	-17.4953	 
   708	-112.6730	-40.1748	29.4364	53.8643	-80.0247	-18.2416	 
   709	-112.7466	-40.1472	33.2830	53.8308	-80.5496	-18.2727	 
   710	-112.7388	-39.9992	30.1855	56.4365	-77.4516	-17.6924	 
   711	-113.2809	-40.3239	19.1876	54.9500	-69.1083	-15.6005	 
   712	-113.4981	-41.6006	 0.6614	38.5511	-52.2921	-8.5784	 
   713	-112.6621	-42.8199	-32.9224	 8.1835	-21.6188	11.0567	 
   714	-111.7370	-43.7708	-61.4184	-11.2809	 9.8268	42.5512	 
   715	-111.0170	-44.3429	-66.6466	-13.7734	-11.4640	36.9564	 
   716	-112.4883	-44.5074	-43.8866	 2.8238	-31.7317	25.8861	 
   717	-113.6110	-44.4632	-19.0353	20.6728	-45.1745	19.6798	 
   718	-114.0485	-44.2235	13.3341	45.0043	-61.7332	 8.7768	 
   719	-114.9119	-44.2389	40.5821	63.5801	-73.7173	 3.2313	 
   720	-115.5314	-44.6100	63.6674	70.4614	-69.8553	16.1615	 
   721	-116.7280	-45.2549	58.4012	72.4060	-66.0198	26.1027	 
   722	-117.5063	-45.7927	48.9000	67.7805	-67.6554	23.0707	 
   723	-117.3166	-45.7508	47.8797	64.4089	-69.1238	16.5286	 
   724	-117.4869	-45.4228	52.6630	57.4324	-78.0845	 3.3071	 
   725	-118.1643	-44.7535	42.8389	51.7641	-87.6171	-8.2038	 
   726	-118.6519	-44.0422	33.5683	61.2222	-88.1512	-11.5675	 
   727	-119.1512	-43.5529	35.8188	62.0030	-90.9527	-14.0939	 
   728	-119.2789	-43.1277	43.1498	57.6842	-95.6475	-17.0458	 
   729	-119.1550	-42.9102	42.6301	62.8239	-99.4041	-18.6573	 
   730	-118.3844	-42.5203	40.5821	63.5801	-99.4343	-19.1709	 
   731	-116.6343	-42.0455	40.5821	63.5801	-93.6642	-18.2654	 
   732	-116.1231	-41.5960	48.9202	60.5012	-95.0541	-19.0266	 
   733	-115.8791	-41.2349	44.5951	55.5762	-95.3511	-19.6291	 
   734	-115.2905	-40.7390	56.2844	49.7605	-93.3762	-19.7212	 
   735	-115.0077	-40.3547	36.6325	65.0385	-93.6258	-20.1538	 
   736	-114.9573	-40.1095	39.2002	59.1426	-94.7704	-20.5557	 
   737	-114.9844	-39.9107	37.7204	61.3008	-95.4933	-20.7761	 
   738	-114.7908	-39.7948	40.6455	57.0346	-94.0605	-20.5555	 
   739	-113.5402	-39.5474	32.0886	63.3804	-83.9660	-18.5480	 
   740	-113.2691	-39.3851	36.8422	58.4390	-86.3283	-19.3250	 
   741	-113.1917	-39.3387	36.8422	58.4390	-88.9058	-19.9475	 
   742	-113.1103	-39.2183	31.7398	61.8974	-88.3421	-19.8933	 
   743	-113.1374	-39.0196	38.7438	57.7368	-89.6587	-20.0443	 
   744	-113.5478	-38.9787	31.9409	55.7883	-90.5065	-20.4810	 
   745	-114.1827	-38.9289	31.4362	49.1151	-86.9566	-19.8426	 
   746	-114.8758	-39.2724	19.4611	44.9908	-73.1829	-15.6328	 
   747	-112.8706	-40.3647	-14.7930	19.7436	-42.7478	-3.8563	 
   748	-110.9390	-42.1462	-63.5313	-12.8996	-8.8034	21.8427	 
   749	-111.6208	-43.7012	-78.6195	-28.6563	-13.8831	31.4025	 
   750	-112.9683	-44.3649	-72.5256	-21.6107	-28.4497	20.7009	 
   751	-115.0862	-44.7017	-44.7655	-3.2239	-45.5455	14.0069	 
   752	-116.4219	-44.4266	-7.2008	31.9335	-66.4797	 5.5816	 
   753	-117.5795	-44.3316	41.0127	65.1828	-74.4520	 8.5254	 
   754	-117.9280	-44.5403	57.3699	79.6463	-71.6186	20.4860	 
   755	-117.2582	-44.6408	70.8747	72.2981	-71.4153	26.4832	 
   756	-117.7848	-44.6695	50.3424	73.2452	-70.6450	26.8735	 
   757	-119.6819	-44.3724	47.7407	57.6007	-74.2866	18.9597	 
   758	-120.5645	-44.0410	42.8389	51.7641	-82.0595	 6.8740	 
   759	-120.7426	-43.8610	40.1203	55.7292	-87.3058	-0.3722	 
   760	-119.9255	-43.3000	43.6448	59.1131	-93.0682	-6.2284	 
   761	-119.3291	-42.6561	49.4970	62.0499	-96.2393	-6.1445	 
   762	-119.2439	-42.4618	41.8782	68.4617	-99.5612	-7.3543	 
   763	-118.4617	-41.8499	47.3028	62.8602	-99.9271	-8.4936	 
   764	-117.1180	-41.2602	41.0127	65.1828	-94.6175	-7.7929	 
   765	-116.3901	-40.9676	39.3953	67.5418	-95.1298	-9.5153	 
   766	-115.2245	-40.1979	47.7407	57.6007	-100.7071	-14.7652	 
   767	-114.5623	-39.7296	31.1387	68.8289	-101.5940	-17.7737	 
   768	-114.5894	-39.5308	36.2063	63.5092	-102.0202	-19.3031	 
   769	-114.5777	-39.3088	34.5616	57.7818	-102.0118	-20.4307	 
   770	-114.6474	-39.2072	24.9208	66.0271	-100.8846	-20.9594	 
   771	-114.4654	-39.3133	28.1631	55.7214	-97.7222	-21.1900	 
   772	-112.9864	-39.0008	20.5785	61.4458	-83.2603	-17.9840	 
   773	-111.7745	-38.7766	29.4364	53.8643	-79.0693	-17.2450	 
   774	-110.9691	-38.4376	29.0274	52.6285	-81.4876	-18.3387	 
   775	-110.2489	-38.2930	27.4183	53.2226	-81.0014	-18.3308	 
   776	-109.8656	-38.1351	28.8434	58.3939	-82.1417	-18.6594	 
   777	-109.6293	-37.9219	21.9206	59.4883	-83.5014	-18.9070	 
   778	-109.3931	-37.7088	28.8434	58.3939	-83.1485	-18.6250	 
   779	-109.2265	-37.3940	28.8434	58.3939	-81.3929	-17.9988	 
   780	-108.9090	-37.0605	34.1096	56.4493	-76.6123	-16.1282	 
   781	-108.0882	-37.1423	35.9381	55.7741	-66.1991	-12.5141	 
   782	-107.9024	-37.1743	40.4508	51.1841	-66.0743	-12.2978	 
   783	-107.8636	-37.1511	34.1096	56.4493	-66.5131	-12.1358	 
   784	-107.6778	-37.1831	32.3542	57.0975	-63.5784	-10.5206	 
   785	-107.7823	-37.0307	29.6111	44.7663	-62.6532	-10.0376	 
   786	-107.8094	-36.8319	17.3568	43.5188	-62.0808	-9.1994	 
   787	-107.8868	-36.8783	25.0032	46.4678	-64.6110	-10.2893	 
   788	-108.0571	-36.5503	31.0316	47.9526	-64.7442	-9.3780	 
   789	-107.4724	-36.1284	23.1324	50.8695	-59.4943	-5.8814	 
   790	-106.5625	-35.9418	29.8271	49.7093	-54.0639	-3.7634	 
   791	-106.4037	-35.7751	33.1185	48.4940	-55.7376	-3.6327	 
   792	-106.8257	-35.9562	19.4405	49.7214	-59.4163	-3.2864	 
   793	-107.1550	-36.5117	 2.0764	35.2923	-56.7568	-0.6325	 
   794	-107.5346	-37.3124	-10.9272	30.1984	-59.2009	-1.5292	 
   795	-108.4252	-37.8458	-19.0353	20.6728	-60.0186	-2.7266	 
   796	-108.7815	-38.2025	-31.7809	14.8839	-61.4862	-4.8085	 
   797	-109.0177	-38.4156	-35.8270	 6.4448	-62.0285	-5.7703	 
   798	-108.8628	-38.3229	-64.4658	-17.3525	-54.1376	-6.9223	 
   799	-107.6780	-37.8999	-72.4229	-24.9471	-55.3562	-11.7575	 
   800	-107.6896	-38.1219	-79.5665	-30.7806	-57.4265	-15.8284	 
   801	-108.0576	-38.7006	-80.9139	-34.6311	-56.9012	-13.8858	 
   802	-108.0887	-39.2926	-68.3917	-26.9230	-54.9811	-7.9228	 
   803	-107.8760	-40.2402	-75.6425	-31.4049	-58.5877	-12.7008	 
   804	-108.4995	-40.6852	-82.8845	-34.4657	-61.1441	-16.1424	 
   805	-108.8015	-40.7227	-75.0825	-27.6010	-58.1746	-12.6659	 
   806	-109.3241	-40.6774	-67.9130	-21.3273	-55.9152	-9.8269	 
   807	-108.9486	-40.6675	-65.5460	-18.5654	-53.9918	-9.5250	 
   808	-108.9834	-40.6167	-63.1451	-18.4024	-53.9315	-9.1350	 
   809	-109.5835	-40.6178	-64.0783	-15.8463	-54.3057	-8.5095	 
   810	-110.7954	-40.8419	-63.3469	-16.1164	-53.5182	-7.8257	 
   811	-111.7053	-41.0285	-62.0167	-12.5593	-53.5827	-7.6520	 
   812	-111.7828	-41.0749	-56.6681	-10.5611	-53.7160	-7.3779	 
   813	-112.0848	-41.1125	-53.8666	-8.0346	-54.0430	-7.2196	 
   814	-112.3132	-41.1776	-53.9180	-7.0036	-54.1118	-7.1193	 
   815	-111.7906	-41.2229	-55.8107	-4.2431	-52.5198	-6.7326	 
   816	-111.4537	-41.2362	-52.5836	-4.0104	-51.2590	-6.2610	 
   817	-111.5660	-41.2318	-53.0696	-2.7439	-51.4224	-5.8633	 
   818	-111.4924	-41.2594	-49.3394	-4.1213	-51.4482	-5.6664	 
   819	-111.4615	-41.3842	-48.8564	 2.1850	-51.3535	-5.3265	 
   820	-111.7248	-41.3985	-47.1097	 0.7529	-51.6417	-5.1451	 
   821	-111.9532	-41.4637	-47.6217	 0.9419	-52.0719	-4.8363	 
   822	-112.1817	-41.5288	-47.8324	 1.8069	-52.3258	-4.7051	 
   823	-111.9997	-41.6349	-46.7312	 0.2008	-51.9342	-4.3999	 
   824	-111.2834	-41.5642	-44.4936	 1.3986	-49.9806	-3.5845	 
   825	-111.1363	-41.6194	-45.0566	 4.5303	-49.5804	-3.1325	 
   826	-111.1402	-41.6934	-41.6743	 6.7673	-50.2773	-2.9126	 
   827	-110.8421	-41.7299	-26.8847	13.6382	-50.4103	-0.7270	 
   828	-111.1713	-42.2854	-13.6178	22.5707	-52.3934	 1.7670	 
   829	-111.5161	-43.1369	-8.3761	28.4692	-55.1123	 3.8205	 
   830	-111.9886	-43.5632	-7.8853	29.8248	-55.3958	 6.6240	 
   831	-112.5655	-43.8370	-12.7090	27.8576	-54.4015	 8.2810	 
   832	-113.8780	-43.8348	-42.3585	 6.5701	-57.1649	 2.5918	 
   833	-112.2289	-44.5671	-53.9957	-8.3243	-53.2843	 0.5966	 
   834	-111.7797	-44.5848	-56.9044	-8.8620	-44.8542	 6.7047	 
   835	-112.1205	-44.6455	-34.7945	 5.5763	-46.8760	 9.1755	 
   836	-110.8972	-45.6329	-57.9289	-11.0326	-52.3628	 4.1922	 
   837	-109.9951	-45.5943	-58.5867	-8.2409	-47.9218	 7.9124	 
   838	-110.4094	-45.6274	-56.2414	-6.4830	-46.7900	 8.7314	 
   839	-110.9243	-45.4341	-53.3190	-1.9021	-45.6755	 9.2570	 
   840	-111.9231	-45.1723	-49.6697	 1.6981	-45.5507	 9.4733	 
   841	-111.4159	-44.7968	-42.6561	 2.7817	-44.2771	 9.5278	 
   842	-110.9047	-44.3473	-41.2614	 6.1650	-43.2703	 9.4933	 
   843	-110.9705	-44.1717	-42.5002	 7.9719	-44.0578	 8.8096	 
   844	-111.1176	-44.1165	-43.7999	 6.2028	-44.1955	 8.3732	 
   845	-111.0788	-44.0933	-45.3361	 5.4956	-44.3634	 8.0603	 
   846	-110.9705	-44.1717	-44.3986	 3.0128	-44.7292	 7.5582	 
   847	-111.0479	-44.2181	-46.4643	 0.9269	-45.4608	 7.1911	 
   848	-111.1989	-44.2369	-47.5655	 2.5330	-46.0502	 7.3338	 
   849	-111.1641	-44.2877	-48.8345	 3.8262	-46.2653	 7.4882	 
   850	-110.4517	-44.2910	-44.7387	 2.3138	-44.7336	 7.4848	 
   851	-110.2658	-44.3231	-46.2746	 2.8809	-44.5313	 7.7475	 
   852	-110.3820	-44.3926	-44.7387	 2.3138	-45.0389	 8.0099	 
   853	-110.1962	-44.4247	-45.2506	 2.5028	-45.0690	 8.1334	 
   854	-110.2001	-44.4987	-45.8743	 3.9701	-45.1249	 8.4539	 
   855	-110.4711	-44.6610	-45.2891	 3.7540	-45.4863	 8.6624	 
   856	-111.0055	-44.8377	-43.9595	 4.1251	-46.0456	 8.6815	 
   857	-111.2417	-45.0508	-45.8481	 5.6846	-46.6179	 8.4805	 
   858	-111.2456	-45.1248	-40.9210	 8.7756	-48.0980	 8.7272	 
   859	-110.7229	-45.1701	-39.3030	 9.6025	-46.7635	12.3576	 
   860	-110.3900	-45.2574	-38.4079	10.2091	-45.4934	16.7989	 
   861	-110.9204	-45.3601	-41.2614	 6.1650	-49.6158	14.6852	 
   862	-111.0327	-45.3557	-62.7398	-14.0540	-53.2313	 7.8489	 
   863	-110.4752	-45.4518	-68.3985	-17.5121	-45.4038	12.6052	 
   864	-109.8558	-45.7975	-44.1150	 0.8465	-43.7592	17.6954	 
   865	-112.9494	-46.1452	-62.5460	-12.6638	-50.9843	13.0165	 
   866	-111.0019	-46.1972	-65.8295	-15.7619	-48.9833	14.6391	 
   867	-109.7900	-45.9731	-64.6415	-13.3518	-45.1839	15.0728	 
   868	-109.2170	-45.7732	-60.6736	-8.7822	-42.8301	16.3402	 
   869	-109.4028	-45.7412	-56.1981	-5.1121	-42.2362	16.9081	 
   870	-109.8558	-45.7975	-52.1188	-3.0950	-42.2964	17.1552	 
   871	-110.1578	-45.8350	-52.1527	-0.4961	-42.5030	16.8192	 
   872	-110.2391	-45.9554	-51.6620	 0.8595	-42.7223	17.5374	 
   873	-110.3205	-46.0758	-50.0657	 0.6824	-43.1440	17.3557	 
   874	-110.5450	-46.0669	-48.7363	-0.2208	-43.6432	17.1277	 
   875	-109.7939	-46.0471	-47.3204	 1.6178	-42.3007	17.0818	 
   876	-109.6042	-46.0051	-45.5175	 1.7767	-41.8533	17.0665	 
   877	-109.7204	-46.0747	-46.6531	 3.4330	-42.1932	17.0046	 
   878	-109.6855	-46.1255	-46.5197	 3.7961	-42.1759	17.2981	 
   879	-109.8017	-46.1951	-45.1172	 2.8659	-42.4040	17.2324	 
   880	-109.8830	-46.3155	-44.9106	 3.2019	-42.8515	17.2477	 
   881	-109.9992	-46.3850	-44.9106	 3.2019	-43.4796	17.3672	 
   882	-110.1889	-46.4270	-44.7771	 3.5649	-43.9615	17.4327	 
   883	-109.7437	-46.5187	-43.5081	 2.2717	-43.4022	17.4136	 
   884	-109.2210	-46.5640	-44.4454	 6.0288	-42.2576	17.8156	 
   885	-109.3720	-46.5827	-44.5447	 4.3412	-42.1629	18.1554	 
   886	-109.4921	-46.7263	-44.7249	 6.9941	-42.4597	18.1901	 
   887	-109.4999	-46.8743	-40.4050	 6.7484	-42.5974	18.3909	 
   888	-109.9529	-46.9306	-28.2320	10.4248	-43.1264	19.5608	 
   889	-110.2626	-47.1161	-21.0753	17.7528	-42.6741	22.1675	 
   890	-110.0459	-47.2730	-21.5949	23.5296	-44.2486	23.9859	 
   891	-110.1698	-47.4905	-21.2246	24.7423	-46.4428	24.7961	 
   892	-110.7660	-47.4176	-34.8703	14.4504	-48.2976	23.1195	 
   893	-110.1272	-47.3933	-50.9990	 2.6013	-51.3707	17.8821	 
   894	-110.2589	-47.7589	-33.3697	 8.8360	-45.9012	21.9348	 
   895	-110.7623	-48.0604	-32.3373	 7.9675	-47.7812	23.6410	 
   896	-110.3521	-48.8180	-60.2984	-4.3102	-51.7358	21.2030	 
   897	-108.7066	-48.9076	-57.1191	-6.1589	-50.7935	21.3424	 
   898	-109.2603	-48.7375	-56.2495	-4.0811	-49.4080	21.3930	 
   899	-109.6899	-48.3498	-52.9749	-2.4040	-47.7856	22.9305	 
   900	-109.8215	-47.9986	-53.5033	 1.9518	-46.7872	24.0237	 
   901	-109.2019	-47.6275	-51.7217	 3.6553	-44.3517	24.7736	 
   902	-108.7837	-47.5204	-47.1651	 3.6221	-43.3921	25.2064	 
   903	-109.0083	-47.5116	-47.9692	 6.4679	-43.6115	25.2875	 
   904	-109.0857	-47.5580	-43.8261	 4.4882	-43.7966	25.3183	 
   905	-109.2406	-47.6507	-46.2267	 6.2367	-43.9601	25.0788	 
   906	-109.5775	-47.6374	-44.6176	 5.6426	-44.8078	24.6422	 
   907	-109.7672	-47.6794	-41.5326	 5.3655	-45.7373	24.0858	 
   908	-109.9956	-47.7446	-43.4556	 6.9752	-46.6840	23.2359	 
   909	-109.9995	-47.8186	-42.3585	 6.5701	-47.2349	22.7646	 
   910	-109.2832	-47.7479	-42.0873	 7.3696	-45.4621	23.0471	 
   911	-109.1710	-47.7523	-43.7735	 9.8289	-45.3546	22.9699	 
   912	-109.2484	-47.7987	-40.8180	 7.3507	-46.1506	22.7766	 
   913	-109.2523	-47.8727	-39.2348	 6.3163	-46.4691	22.4443	 
   914	-109.3685	-47.9423	-41.6783	 8.6054	-46.9295	22.2395	 
   915	-109.5195	-47.9610	-40.3358	 8.5595	-48.0870	21.6174	 
   916	-109.6318	-47.9566	-39.8881	 9.8186	-49.2145	20.8717	 
   917	-109.9338	-47.9942	-44.3381	 4.6772	-48.5214	22.4900	 
   918	-110.2358	-48.0317	-54.0986	-6.2622	-39.4538	32.4484	 
   919	-109.4885	-48.0858	-56.1122	-6.1934	-34.3372	36.2190	 
   920	-108.9155	-47.8860	-49.2271	-1.5764	-36.9965	34.8396	 
   921	-108.7684	-47.9412	-44.0378	-0.3814	-39.7722	32.7533	 
   922	-109.7518	-48.1002	-56.3535	-7.7536	-45.2025	30.6354	 
   923	-109.8680	-48.1698	-66.9993	-12.7811	-52.0918	27.2194	 
   924	-109.5311	-48.1830	-55.7511	-7.6761	-48.4044	27.0198	 
   925	-110.4410	-48.3696	-57.0896	-9.4684	-50.9300	27.2777	 
   926	-109.2099	-48.4923	-64.0909	-14.1549	-53.9981	25.9367	 
   927	-108.6716	-48.2416	-64.6415	-13.3518	-50.1429	26.0499	 
   928	-108.4510	-48.3244	-55.7341	-8.6570	-47.0189	27.0704	 
   929	-108.5594	-48.2460	-53.6763	-2.8947	-45.1385	27.9129	 
   930	-108.7956	-48.4592	-51.9245	 0.2068	-44.8200	28.2451	 
   931	-109.1015	-48.5707	-47.8802	-0.9118	-44.8932	28.2721	 
   932	-109.0628	-48.5475	-48.7363	-0.2208	-44.9405	28.1022	 
   933	-109.2176	-48.6403	-47.6217	 0.9419	-45.6678	27.8085	 
   934	-109.2912	-48.6127	-46.8982	 4.3482	-46.4380	27.4182	 
   935	-108.9505	-48.5519	-42.3504	 3.5310	-46.3735	27.2444	 
   936	-108.4587	-48.4724	-42.2512	 5.2186	-45.1128	27.0788	 
   937	-108.3852	-48.5000	-40.8484	 5.5627	-45.2377	26.8625	 
   938	-108.4278	-48.5972	-41.2309	 7.9530	-45.8960	26.4684	 
   939	-108.5440	-48.6668	-40.1643	 5.7599	-46.2446	26.2598	 
   940	-108.6640	-48.8104	-39.2348	 6.3163	-46.5028	26.3176	 
   941	-108.8925	-48.8755	-38.3053	 6.8726	-47.1998	26.5375	 
   942	-109.1248	-49.0147	-39.6477	 6.9185	-47.6515	26.4794	 
   943	-109.3881	-49.0290	-39.1656	 8.1274	-48.1722	26.5217	 
   944	-109.0939	-49.1395	-39.4408	 9.1661	-47.0706	26.8271	 
   945	-108.8654	-49.0743	-36.6529	 7.6494	-46.0078	27.1094	 
   946	-108.9429	-49.1207	-36.0678	 7.4333	-46.5542	27.3486	 
   947	-108.8693	-49.1483	-36.1321	 8.8814	-46.7736	27.4297	 
   948	-108.7183	-49.1295	-36.3039	10.4067	-46.7994	27.6266	 
   949	-108.8306	-49.1251	-37.9215	11.4913	-47.2512	27.5685	 
   950	-109.0939	-49.1395	-34.7118	10.7934	-47.8105	27.5877	 
   951	-109.2488	-49.2322	-33.6793	 9.9249	-48.1505	27.5258	 
   952	-109.1752	-49.2598	-33.5806	 8.4266	-48.3270	27.0662	 
   953	-108.9777	-49.0699	-38.5811	 4.7255	-47.3288	26.8850	 
   954	-108.7880	-49.0279	-37.6825	 0.9452	-47.5694	28.5107	 
   955	-108.9041	-49.0975	-33.7184	 7.9902	-49.7033	29.7110	 
   956	-109.8489	-49.2333	-46.5121	-1.7918	-50.9805	33.4062	 
   957	-109.8954	-49.4045	-58.3923	-4.3019	-48.5176	42.8796	 
   958	-110.2322	-49.3912	-52.0580	-0.1562	-48.6697	35.2142	 
   959	-110.4994	-49.4796	-51.0256	-1.6620	-52.8046	34.7919	 
   960	-109.5702	-49.6398	-62.3347	-10.3428	-57.5889	36.6710	 
   961	-109.4464	-50.1390	-63.7162	-12.2316	-53.1490	34.0194	 
   962	-107.6227	-49.6917	-56.5078	-4.6604	-49.7111	34.0244	 
   963	-107.6807	-49.3681	-45.6292	 3.0549	-47.7534	34.2761	 
   964	-107.7349	-48.9706	-37.6850	10.4295	-47.4824	33.8012	 
   965	-108.2188	-48.9021	-28.9150	16.5994	-48.2055	32.3065	 
   966	-108.5169	-48.8656	-24.8055	19.1302	-49.4278	30.5838	 
   967	-108.4395	-48.8192	-26.0875	20.2033	-50.3875	29.5138	 
   968	-108.2420	-48.6293	-23.8933	19.3930	-50.2542	29.2396	 
   969	-107.3282	-48.3687	-21.7761	20.4480	-48.2791	29.7848	 
   970	-107.0184	-48.1831	-19.1812	22.6384	-48.6362	30.0666	 
   971	-106.9836	-48.2339	-15.5196	22.6357	-49.7205	30.0546	 
   972	-106.5383	-48.3256	-14.6538	27.8261	-49.9441	30.6995	 
   973	-106.3834	-48.2329	-14.7393	30.8189	-50.2452	31.2979	 
   974	-106.3369	-48.0617	-12.1100	32.9591	-50.7012	31.8037	 
   975	-106.3912	-48.3809	-12.5663	31.5533	-51.1314	32.1124	 
   976	-105.9925	-48.6437	-10.5096	31.5810	-50.8560	32.3481	 
   977	-104.9277	-48.3643	-8.8133	37.5517	-47.1037	33.8863	 
   978	-104.9625	-48.3135	-0.1989	39.8059	-42.6410	38.6106	 
   979	-105.2529	-48.1291	 5.4089	46.8437	-32.8685	44.0355	 
   980	-104.9159	-47.4256	 9.9528	48.5018	-34.2329	41.8031	 
   981	-104.8229	-47.0832	12.0573	51.2482	-31.3585	43.0281	 
   982	-105.3378	-46.8899	18.9292	53.7335	-20.1787	50.7822	 
   983	-106.0540	-46.9606	25.1388	58.3000	-19.8342	52.1918	 
   984	-106.7433	-47.2300	30.5988	57.7457	-29.5585	50.7598	 
   985	-106.1005	-47.1318	31.7398	61.8974	-28.2461	51.4746	 
   986	-105.6902	-47.1727	28.1559	63.2208	-30.3287	51.0067	 
   987	-105.9922	-47.2102	40.1203	55.7292	-37.7769	49.5214	 
   988	-106.1393	-47.1550	33.0404	68.1267	-42.7123	48.1952	 
   989	-106.0231	-47.0854	30.5745	65.5888	-41.9813	46.0136	 
   990	-106.0153	-46.9374	30.5745	65.5888	-42.7430	45.1329	 
   991	-106.1624	-46.8822	41.1750	58.4134	-45.6474	44.6685	 
   992	-106.2321	-46.7806	40.1559	62.0507	-47.9451	44.3550	 
   993	-106.4528	-46.6977	36.2063	63.5092	-50.1695	44.6516	 
   994	-106.1895	-46.6834	35.3726	69.0272	-52.1832	44.7205	 
   995	-105.6125	-46.4095	41.8782	68.4617	-55.4962	44.9318	 
   996	-105.4538	-46.2427	48.3809	76.1061	-61.3180	43.7829	 
   997	-105.2446	-45.8308	49.8946	71.3490	-61.8686	44.5860	 
   998	-104.9580	-45.3725	43.0194	73.8877	-61.4726	44.9646	 
   999	-105.0780	-45.5161	43.0194	73.8877	-60.1303	44.2815	 
  1000	-105.1477	-45.4145	40.8252	74.6979	-60.5264	43.2657	 
  1001	-105.5581	-45.3736	46.0404	76.9703	-60.9524	43.0107	 
  1002	-106.3403	-45.9854	31.4230	70.4856	-57.9491	43.2511	 
  1003	-107.3086	-47.2819	 2.5077	40.7181	-45.7171	40.3087	 
  1004	-107.0223	-48.2571	-22.8977	28.0590	-25.1310	51.0740	 
  1005	-107.1153	-48.5995	-39.4607	17.7197	-16.0588	62.3801	 
  1006	-107.3901	-48.1191	-36.2992	12.3916	-13.0900	62.0336	 
  1007	-107.3784	-47.8971	-33.2951	17.0923	-11.2828	62.9030	 
  1008	-107.5681	-47.9390	-29.3016	20.1906	-8.9979	63.6336	 
  1009	-107.8314	-47.9534	-22.3573	18.8259	-7.2552	64.0397	 
  1010	-108.0134	-47.8474	-22.5458	23.2436	-5.9256	64.4108	 
  1011	-108.1566	-47.7181	-22.0291	25.0394	-5.1512	64.2373	 
  1012	-108.2611	-47.5657	-20.2990	27.7741	-5.2070	64.5578	 
  1013	-108.4895	-47.6309	-18.0914	29.0955	-5.9946	63.8740	 
  1014	-108.3037	-47.6629	-13.8616	30.4948	-7.3674	62.1320	 
  1015	-108.7567	-47.7192	-15.1182	29.4594	-13.0693	57.9402	 
  1016	-109.3064	-47.4751	-14.9288	30.1392	-17.5444	56.1817	 
  1017	-109.8988	-47.3282	-11.3737	35.9483	-20.1304	56.0495	 
  1018	-110.6306	-47.6948	-6.7084	42.2096	-22.1781	58.0801	 
  1019	-111.1688	-47.9455	11.8735	57.6508	-28.1113	58.8466	 
  1020	-111.4399	-48.1078	32.4030	64.9136	-36.0761	56.2026	 
  1021	-111.4089	-48.2327	35.0152	67.3975	-39.9102	53.9075	 
  1022	-110.7314	-48.1852	42.6301	62.8239	-42.0884	48.6395	 
  1023	-110.2745	-48.0549	32.7561	66.4699	-43.6859	41.8077	 
  1024	-110.4564	-47.9489	29.2371	69.5311	-46.4189	37.9065	 
  1025	-110.8513	-47.6120	35.0152	67.3975	-48.3124	36.2067	 
  1026	-111.0176	-47.2100	30.8544	67.1721	-50.9115	34.5801	 
  1027	-111.1531	-46.9328	34.3046	64.2114	-53.4461	32.7798	 
  1028	-111.2963	-46.8035	30.8544	67.1721	-55.4427	31.8677	 
  1029	-111.4744	-46.6235	31.1387	68.8289	-56.9874	31.6510	 
  1030	-111.0329	-46.0724	33.0404	68.1267	-58.0972	33.1103	 
  1031	-109.6620	-44.9648	49.4124	69.5029	-59.8477	37.0178	 
  1032	-109.1547	-44.5893	65.1033	87.2486	-63.2423	38.3837	 
  1033	-109.1121	-44.4921	62.0314	88.3829	-64.3135	39.2290	 
  1034	-109.3174	-44.8300	52.1038	81.5909	-61.0086	41.4197	 
  1035	-109.4065	-45.0984	13.0714	67.2165	-51.2156	42.1141	 
  1036	-108.7289	-45.0509	-10.8043	43.7220	-39.5002	37.3759	 
  1037	-108.3652	-45.9798	-28.1779	24.0488	-24.0263	45.0811	 
  1038	-107.2074	-45.3580	-35.8085	13.7472	-15.8329	50.9767	 
  1039	-106.4987	-44.7186	-25.7641	23.7947	-8.3450	57.5826	 
  1040	-106.7311	-44.8578	-21.9080	28.3682	-4.3689	59.7503	 
  1041	-108.0282	-45.2763	-18.5558	30.7288	-3.6160	59.2099	 
  1042	-108.6091	-45.6241	-19.2441	31.7326	-4.3176	58.0821	 
  1043	-109.3718	-45.8660	-16.5599	27.8178	-5.3118	56.4251	 
  1044	-110.3979	-46.1222	-19.2705	28.1065	-8.1992	54.9799	 
  1045	-111.2730	-46.3596	-21.4559	30.3378	-12.2397	53.6231	 
  1046	-111.7647	-46.4391	-20.1482	28.4306	-13.9608	53.5839	 
  1047	-111.4279	-46.4523	-16.2197	29.1540	-14.3308	53.6456	 
  1048	-110.6225	-46.1133	-17.9056	33.5249	-12.6571	53.5148	 
  1049	-110.5217	-45.6230	-17.8122	26.8558	-7.7945	56.1424	 
  1050	-110.8972	-45.6329	-17.4376	28.1418	-6.7101	56.7915	 
  1051	-111.0095	-45.6285	-17.5883	27.4853	-4.9931	58.0316	 
  1052	-110.9940	-45.3325	-21.4738	26.8584	-0.1393	59.8753	 
  1053	-110.5912	-44.8046	-18.0038	37.5719	 2.8639	59.4785	 
  1054	-110.4750	-44.7350	-5.4476	42.6811	-2.2148	51.2708	 
  1055	-110.2543	-44.8179	 1.4106	41.1232	-26.4433	28.1314	 
  1056	-108.9263	-44.5241	 6.1270	44.4420	-34.2805	17.4938	 
  1057	-107.8576	-44.1708	 5.4747	53.6789	-39.5689	15.2484	 
  1058	-108.0358	-44.7075	10.2254	56.9474	-46.7076	12.0371	 
  1059	-108.6902	-45.0278	15.4366	60.4207	-53.9197	 8.2155	 
  1060	-108.9844	-44.9173	23.7954	53.2485	-62.4351	 5.7374	 
  1061	-109.5536	-45.0432	18.7024	60.6767	-72.8954	 3.2277	 
  1062	-110.0802	-45.0719	21.6513	68.8837	-81.2730	 1.8232	 
  1063	-110.6842	-45.1469	22.9629	65.1383	-79.0269	 2.5306	 
  1064	-109.9951	-45.5943	-7.8960	41.7110	-48.6647	15.6085	 
  1065	-108.3187	-45.8086	-29.3479	25.7553	 4.2445	56.9071	 
  1066	-108.7369	-45.9157	-61.7473	 1.5474	 1.9745	66.5914	 
  1067	-110.6573	-46.0625	-33.1821	22.8230	-24.8303	48.5641	 
  1068	-112.5080	-46.3109	 2.5859	68.0897	-58.1714	27.4028	 
  1069	-112.2564	-46.5186	39.5705	83.8574	-77.7930	20.3295	 
  1070	-113.4142	-47.1403	42.5028	95.5940	-74.2196	32.1667	 
  1071	-114.4210	-47.7433	54.2718	78.4288	-74.7530	32.6260	 
  1072	-115.8691	-48.1806	54.6086	61.9242	-78.9839	25.4921	 
  1073	-116.2330	-47.9685	30.5346	82.6959	-90.7207	 7.6358	 
  1074	-115.2650	-47.3887	51.1674	66.9432	-100.3831	-7.9878	 
  1075	-115.1603	-46.8244	38.3681	73.5811	-103.8605	-12.4762	 
  1076	-115.7295	-46.9502	30.2929	78.5871	-101.6962	-11.8886	 
  1077	-115.6442	-46.7559	25.7847	61.0227	-94.0972	-9.7467	 
  1078	-115.6365	-46.6079	 5.1537	62.8309	-91.0982	-9.5797	 
  1079	-115.7371	-46.3815	 6.3261	51.0030	-86.6534	-8.9719	 
  1080	-116.4378	-46.1561	 4.6219	49.3458	-82.4923	-6.8351	 
  1081	-116.7320	-46.0457	11.2102	53.9974	-85.5388	-7.8092	 
  1082	-116.0854	-45.8734	 9.3958	61.2645	-71.8039	-4.2597	 
  1083	-115.0864	-45.4184	15.2471	59.1039	-63.9555	-2.3224	 
  1084	-114.1687	-45.0838	14.2884	63.7684	-69.6483	-4.4559	 
  1085	-113.7040	-44.8056	16.9726	59.8536	-72.9315	-5.6425	 
  1086	-113.3324	-44.8696	19.1876	54.9500	-74.4720	-6.4231	 
  1087	-113.2588	-44.8972	15.2471	59.1039	-78.3619	-7.7605	 
  1088	-113.2240	-44.9480	12.4379	61.5281	-81.1803	-8.6689	 
  1089	-113.2588	-44.8972	 9.5122	62.6084	-82.4411	-9.1405	 
  1090	-113.2201	-44.8741	13.5216	58.3541	-83.5039	-9.4227	 
  1091	-112.1244	-44.7195	10.9751	62.0682	-72.1743	-6.1096	 
  1092	-111.2919	-44.5793	 8.1702	64.5658	-70.0917	-5.6416	 
  1093	-110.9473	-44.4445	 9.5122	62.6084	-75.2509	-6.9601	 
  1094	-110.6066	-44.3838	18.9292	53.7335	-77.8584	-7.4591	 
  1095	-110.5291	-44.3374	19.5191	56.1395	-80.8145	-8.1668	 
  1096	-110.6414	-44.3330	14.9844	57.8140	-85.2121	-9.2418	 
  1097	-110.9395	-44.2965	 9.2063	59.9476	-89.0416	-10.1891	 
  1098	-111.2415	-44.3341	 9.6330	64.0256	-94.5707	-10.8088	 
  1099	-111.2995	-44.0105	19.4347	64.8668	-93.4729	-7.3909	 
  1100	-110.8660	-44.3242	 7.1875	55.4828	-71.9703	 3.7107	 
  1101	-109.2594	-45.1536	-35.1100	21.1735	-47.6271	19.2735	 
  1102	-109.3757	-45.9400	-73.2631	-8.1066	-12.4423	51.4489	 
  1103	-110.6069	-45.8173	-60.5599	 0.7716	-43.2536	29.4659	 
  1104	-111.6252	-45.9255	-17.0055	38.0279	-59.1490	22.8534	 
  1105	-112.0085	-46.0834	16.9379	81.4944	-61.9926	25.3278	 
  1106	-112.1712	-46.3242	56.1801	90.5435	-61.2120	35.4225	 
  1107	-113.3251	-46.8719	56.4560	93.3279	-62.9576	41.9520	 
  1108	-114.3125	-47.1049	41.9110	82.9932	-70.5966	32.7780	 
  1109	-115.3307	-47.2131	22.4235	79.4688	-88.3880	11.0850	 
  1110	-115.0054	-46.7316	27.1974	68.5225	-93.4799	 1.3828	 
  1111	-115.9811	-46.7426	23.7515	71.5567	-96.8107	-1.8852	 
  1112	-116.5851	-46.8177	25.3689	69.1977	-97.8221	-3.1985	 
  1113	-116.4224	-46.5769	19.5985	66.3807	-95.7742	-3.9547	 
  1114	-116.4069	-46.2809	14.7712	68.1632	-93.5930	-5.6223	 
  1115	-116.2673	-45.7674	14.2884	63.7684	-90.1122	-6.1579	 
  1116	-116.0504	-45.2075	11.0958	63.4855	-89.6477	-7.1541	 
  1117	-116.0967	-44.6619	10.7855	60.7513	-90.4138	-8.1081	 
  1118	-115.1364	-44.2301	11.0958	63.4855	-77.4148	-4.9991	 
  1119	-114.5285	-44.0810	17.3604	62.6341	-72.9571	-4.1712	 
  1120	-114.2884	-43.7939	12.6318	62.9183	-76.2961	-5.0374	 
  1121	-113.7656	-43.1224	15.4366	60.4207	-77.1653	-5.2037	 
  1122	-112.5689	-41.7607	16.5203	57.2468	-78.7271	-5.0768	 
  1123	-111.6783	-41.2273	15.2471	59.1039	-82.0790	-5.5258	 
  1124	-112.1081	-41.5564	15.6305	61.8110	-83.0514	-5.5416	 
  1125	-112.3404	-41.6956	17.1665	61.2438	-82.7717	-5.2326	 
  1126	-111.8332	-41.3201	14.4479	65.2089	-79.6218	-3.7718	 
  1127	-110.4160	-40.7580	14.4479	65.2089	-68.8214	 0.0741	 
  1128	-109.8700	-40.3593	11.3760	66.3432	-69.3936	 0.5103	 
  1129	-109.7886	-40.2390	18.2458	57.9965	-68.3304	 2.7040	 
  1130	-109.7731	-39.9430	 9.4243	52.2204	-64.6761	 9.5636	 
  1131	-110.5397	-40.2588	-11.3737	35.9483	-61.6073	14.7276	 
  1132	-111.1515	-40.4819	-20.4619	30.7205	-63.7756	16.6153	 
  1133	-111.5310	-40.5658	-26.8615	22.9255	-67.7602	14.9380	 
  1134	-111.9608	-40.8949	-37.6877	19.2765	-69.2794	12.6128	 
  1135	-111.9764	-41.1909	-41.9527	13.4672	-68.1823	12.2077	 
  1136	-111.3531	-41.4626	-47.5301	 7.5802	-61.9434	12.1904	 
  1137	-110.9814	-41.5267	-57.9013	-1.6719	-64.9777	 7.6133	 
  1138	-111.1324	-41.5454	-61.4904	-4.8822	-66.2638	 9.8874	 
  1139	-110.8188	-41.2859	-66.3401	-7.9267	-69.7276	 8.8050	 
  1140	-110.1140	-40.7205	-70.6093	-13.1723	-65.2009	10.1697	 
  1141	-110.0752	-40.6973	-66.8904	-5.8493	-63.4272	15.5496	 
  1142	-110.7335	-41.0915	-71.7581	-13.0105	-67.8245	15.7489	 
  1143	-110.9157	-41.7023	-72.2743	-12.2576	-62.5270	20.6897	 
  1144	-110.3040	-42.1960	-71.8182	-12.1262	-62.4113	18.2106	 
  1145	-109.8666	-42.4356	-71.6154	-9.3148	-59.2830	19.3045	 
  1146	-109.9402	-42.4080	-66.2102	-3.8140	-58.4178	21.3090	 
  1147	-109.7465	-42.2921	-63.3830	-2.1217	-59.5410	20.6367	 
  1148	-109.6304	-42.2225	-65.2885	 1.0559	-62.1789	18.3497	 
  1149	-109.7078	-42.2689	-61.2737	 3.2467	-64.8169	16.0627	 
  1150	-109.7426	-42.2181	-54.3714	 7.5200	-66.5168	14.4789	 
  1151	-109.6652	-42.1717	-50.3299	14.6114	-67.7132	13.1964	 
  1152	-108.7901	-41.9343	-42.9158	17.4212	-66.0610	12.6988	 
  1153	-108.2636	-41.9056	-38.0618	20.5392	-65.3469	12.1352	 
  1154	-108.2326	-42.0304	-34.8436	19.3508	-65.9235	11.8609	 
  1155	-108.0855	-42.0856	-36.1768	22.7294	-66.2290	11.7488	 
  1156	-107.9306	-41.9929	-35.4454	22.4593	-66.3365	11.8260	 
  1157	-107.8571	-42.0205	-35.9960	23.2623	-67.2444	11.6364	 
  1158	-107.8571	-42.0205	-35.5266	25.5254	-68.0922	11.1998	 
  1159	-107.7796	-41.9741	-32.8936	23.9160	-68.7549	10.7323	 
  1160	-107.3576	-41.7930	-34.1369	25.0123	-68.3634	10.4003	 
  1161	-106.5599	-41.6020	-28.1779	24.0488	-66.3626	10.7485	 
  1162	-106.2928	-41.5136	-27.4465	23.7787	-66.4228	10.9957	 
  1163	-106.2231	-41.6152	-28.6165	25.4852	-66.4140	11.7796	 
  1164	-106.2579	-41.5644	-51.1402	 7.1890	-64.5975	15.9817	 
  1165	-106.4012	-41.4352	-60.5344	-0.6996	-58.5288	26.4102	 
  1166	-106.9472	-41.8339	-55.9560	 0.9083	-56.2343	32.3850	 
  1167	-107.5901	-42.6489	-54.2085	 4.5736	-60.0122	31.6809	 
  1168	-108.1246	-43.5423	-50.3487	 6.0346	-61.6773	31.9584	 
  1169	-107.7142	-43.5832	-44.5688	13.4586	-58.5450	31.8513	 
  1170	-107.6136	-43.8096	-60.2622	 5.1972	-64.2643	26.0917	 
  1171	-107.7801	-44.1244	-73.5384	-7.7051	-64.5101	23.1837	 
  1172	-107.8305	-44.3696	-45.2224	15.6866	-61.9707	27.6062	 
  1173	-108.2217	-44.6755	-54.6720	10.6672	-66.1314	27.3808	 
  1174	-106.8708	-46.0881	-67.8740	 3.4724	-60.8079	33.3991	 
  1175	-107.2619	-46.3940	-64.1909	 3.1994	-56.1216	36.8414	 
  1176	-108.1175	-46.2614	-60.1679	 3.6255	-55.5192	36.9188	 
  1177	-108.8879	-45.9345	-57.5639	 7.8742	-52.4425	38.4065	 
  1178	-108.4464	-45.3834	-44.0521	15.2545	-50.1062	38.1061	 
  1179	-108.3882	-44.9902	-37.4933	23.2155	-51.4018	35.7732	 
  1180	-108.5275	-44.7870	-32.0015	32.0953	-54.7973	32.0417	 
  1181	-108.5237	-44.7130	-27.9699	32.0310	-56.2390	30.4001	 
  1182	-108.6282	-44.5606	-27.6253	34.0778	-57.2201	29.6004	 
  1183	-108.6513	-44.2878	-24.4071	32.8894	-58.2228	29.0710	 
  1184	-108.6048	-44.1166	-22.7980	32.2952	-59.2254	28.5416	 
  1185	-108.7480	-43.9874	-24.7077	36.0366	-59.8967	27.9274	 
  1186	-108.1828	-43.9355	-24.1745	34.3029	-58.7996	27.5223	 
  1187	-107.2341	-43.7257	-19.9529	37.4670	-56.0843	29.2184	 
  1188	-106.9051	-43.8870	-6.9011	47.1911	-55.7141	30.4311	 
  1189	-107.3001	-44.2669	14.7260	56.5975	-41.7202	38.3830	 
  1190	-108.3338	-43.9543	25.1621	67.5873	-40.6637	51.2620	 
  1191	-108.8681	-44.1310	36.2470	74.3643	-61.3300	48.6602	 
  1192	-108.3840	-43.4827	47.5541	72.2132	-67.7068	47.6039	 
  1193	-108.3723	-43.2607	44.0101	79.9315	-70.6627	47.5334	 
  1194	-108.2949	-43.2143	34.7768	81.1295	-70.5723	47.7999	 
  1195	-107.8457	-43.2320	38.9325	77.4584	-68.0121	48.1290	 
  1196	-107.2417	-43.1569	34.6172	79.0519	-64.6345	48.3811	 
  1197	-107.1991	-43.0598	34.7768	81.1295	-64.1052	48.4855	 
  1198	-107.1604	-43.0366	34.6172	79.0519	-64.2946	48.4430	 
  1199	-107.3114	-43.0553	38.6309	75.5082	-64.2344	48.1959	 
  1200	-107.7374	-43.3104	20.3345	90.9604	-61.8894	48.0422	 
  1201	-108.2485	-43.7599	29.7368	72.9450	-59.5660	48.1588	 
  1202	-108.8953	-44.6489	 8.5367	68.8910	-58.4998	43.4170	 
  1203	-109.0582	-45.6065	-12.0824	42.3198	-54.8529	33.6366	 
  1204	-107.8813	-46.0483	-20.7130	45.5067	-30.3288	50.3695	 
  1205	-106.8900	-45.7413	-13.2313	41.8444	-20.8916	57.7175	 
  1206	-106.3324	-45.1206	-1.7589	49.4904	-30.0741	54.6985	 
  1207	-106.2586	-44.4315	 0.7513	59.1339	-39.8939	49.1036	 
  1208	-106.2081	-43.4695	 3.4234	59.4591	-43.6592	46.7081	 
  1209	-106.5525	-42.8875	10.0402	55.7039	-43.9003	45.7851	 
  1210	-106.6802	-42.4623	12.3458	52.3411	-43.1562	44.4608	 
  1211	-106.8195	-42.2591	 4.6278	57.7024	-42.0720	43.8356	 
  1212	-106.9240	-42.1067	 3.0569	55.7711	-41.3666	42.4881	 
  1213	-106.8234	-42.3331	 9.6396	53.3404	-44.0991	41.1356	 
  1214	-106.2153	-41.4672	 2.4042	62.4593	-48.4796	39.0798	 
  1215	-107.2840	-41.8206	11.6151	56.4342	-56.3234	39.1274	 
  1216	-108.3180	-42.9415	16.8680	75.8602	-63.3621	42.0638	 
  1217	-108.9570	-43.6826	26.9174	66.9391	-65.9445	37.5448	 
  1218	-109.0384	-43.8029	22.9629	65.1383	-66.4019	30.4044	 
  1219	-109.0384	-43.8029	10.2288	74.7883	-68.7142	20.9503	 
  1220	-109.8981	-44.4611	14.2884	63.7684	-70.0662	15.7521	 
  1221	-110.4015	-44.7626	 5.6117	73.1572	-67.1837	14.5752	 
  1222	-109.6852	-44.6920	12.9120	65.7761	-54.4213	17.4718	 
  1223	-109.6116	-44.7196	16.2165	66.0552	-56.8096	16.2546	 
  1224	-109.7626	-44.7384	 4.0757	73.7243	-59.0730	15.2536	 
  1225	-109.6503	-44.7428	14.4479	65.2089	-59.4389	14.1143	 
  1226	-109.6735	-44.4700	17.8256	65.4610	-65.4376	 9.9572	 
  1227	-109.4914	-43.8593	18.2458	57.9965	-77.6754	 5.1802	 
  1228	-108.7401	-43.1226	19.2021	63.4534	-81.4700	 6.7313	 
  1229	-108.4225	-42.7891	14.9955	71.3414	-76.7192	10.6370	 
  1230	-107.6017	-42.8709	17.5930	64.0476	-73.8704	12.6962	 
  1231	-106.7267	-42.6335	10.9751	62.0682	-70.4792	16.3543	 
  1232	-107.0672	-41.9774	-3.4444	55.7728	-69.6479	20.9577	 
  1233	-107.6942	-41.0630	-8.6602	50.9518	-70.1510	22.5679	 
  1234	-108.2943	-41.0640	-11.5353	45.9036	-70.1423	23.3518	 
  1235	-108.6660	-41.0000	-13.4294	41.0180	-70.7446	23.9116	 
  1236	-109.0920	-41.2551	-14.6645	39.7123	-73.3563	23.9763	 
  1237	-109.4405	-41.4638	-14.5052	40.5156	-74.2382	24.8642	 
  1238	-109.6728	-41.6029	-16.8923	45.0330	-74.3886	25.4821	 
  1239	-109.6380	-41.6537	-15.5019	48.3429	-74.2379	26.1386	 
  1240	-108.7785	-41.7123	-12.0119	51.1399	-69.2165	27.0207	 
  1241	-108.7282	-42.1839	-10.0244	49.3564	-70.1803	27.1517	 
  1242	-109.0265	-42.8642	-37.2472	28.0350	-74.6995	19.5620	 
  1243	-108.7825	-42.5031	-43.7668	22.6458	-73.6754	19.8211	 
  1244	-108.4377	-41.6516	-30.6540	35.9458	-74.0144	24.8566	 
  1245	-108.9760	-41.9023	-41.9383	21.9706	-74.1778	25.2543	 
  1246	-109.5027	-42.6477	-55.0168	 7.3460	-65.2449	28.4778	 
  1247	-109.0768	-42.3926	-45.9453	15.4662	-64.8916	30.6714	 
  1248	-109.0536	-42.6654	-43.9827	18.3400	-63.5620	31.0426	 
  1249	-108.1515	-42.6268	-33.7614	31.3958	-61.4151	30.6996	 
  1250	-107.8882	-42.6124	-20.0121	43.4487	-61.8628	29.4405	 
  1251	-107.7372	-42.5937	-14.6072	47.0379	-63.3517	28.2661	 
  1252	-107.6985	-42.5705	-8.1662	46.6462	-64.6257	26.3001	 
  1253	-107.5436	-42.4777	-7.5631	50.5466	-66.4504	24.4999	 
  1254	-107.4661	-42.4313	-2.6190	52.0196	-67.6810	23.9048	 
  1255	-107.4313	-42.4821	-1.4487	51.5874	-68.0554	23.8931	 
  1256	-107.4700	-42.5053	-4.3688	59.7500	-68.8127	23.7230	 
  1257	-106.9783	-42.4258	 1.7404	56.2572	-66.8421	23.5576	 
  1258	-106.1575	-42.5076	 9.0210	58.7041	-65.1859	21.8590	 
  1259	-106.0917	-42.6832	 5.1537	62.8309	-70.3670	18.2621	 
  1260	-106.2505	-42.8500	 3.7207	61.9732	-71.2965	17.7057	 
  1261	-106.3706	-42.9935	 3.7640	63.3441	-71.8687	17.5047	 
  1262	-106.5525	-42.8875	 8.1702	64.5658	-75.0357	16.3876	 
  1263	-106.7771	-42.8786	 3.9280	66.1322	-77.6088	15.8384	 
  1264	-107.0365	-42.8190	 8.1226	63.1215	-78.8136	15.6835	 
  1265	-107.2301	-42.9350	 2.5859	68.0897	-79.3170	16.0194	 
  1266	-106.9977	-42.7958	 5.2701	64.1748	-73.5252	17.9289	 
  1267	-107.0674	-42.6942	 5.4384	67.0364	-74.1146	18.0716	 
  1268	-107.4778	-42.6533	16.5203	57.2468	-74.5663	18.6507	 
  1269	-108.2986	-42.5716	-1.9898	57.6346	-72.1650	20.7252	 
  1270	-108.7749	-43.0718	-11.5353	45.9036	-71.0502	23.1623	 
  1271	-108.7868	-44.0106	-40.6770	24.9908	-70.7836	21.9768	 
  1272	-107.3544	-44.5860	-66.8976	 1.6500	-38.3543	44.7868	 
  1273	-106.4291	-44.8202	-88.1488	-22.3263	-22.5749	52.6041	 
  1274	-106.6034	-45.2830	-74.6623	-12.2005	-30.1327	40.3640	 
  1275	-107.2230	-45.6540	-48.7690	 9.3870	-39.7720	33.3905	 
  1276	-108.8996	-46.1565	-9.2957	57.9334	-58.0943	25.5376	 
  1277	-110.4755	-46.8853	37.4427	94.6887	-59.8168	41.3544	 
  1278	-111.9276	-47.3966	34.5057	104.4694	-65.4527	44.6350	 
  1279	-112.7639	-47.6108	39.5705	83.8574	-64.5534	44.6778	 
  1280	-113.4337	-47.5103	18.1665	94.1224	-63.5129	40.7701	 
  1281	-113.7279	-47.3998	25.9335	74.3494	-75.9685	21.4924	 
  1282	-113.6853	-47.3026	27.6197	71.8900	-86.2451	11.9430	 
  1283	-113.4413	-46.9415	37.7091	70.0011	-87.0585	10.8190	 
  1284	-112.9727	-46.5892	26.0801	76.2069	-85.8495	10.4101	 
  1285	-113.0694	-46.2888	31.9314	74.0463	-87.1189	 9.7918	 
  1286	-112.9416	-45.9972	33.3978	69.7564	-87.9322	 9.3049	 
  1287	-112.8912	-45.7521	26.0801	76.2069	-88.5347	 8.5903	 
  1288	-113.1699	-45.3456	25.9335	74.3494	-89.8859	 7.8523	 
  1289	-113.3828	-45.1148	25.5800	70.8815	-91.4608	 7.1219	 
  1290	-113.8745	-45.1943	22.1341	73.9156	-91.7450	 6.1024	 
  1291	-114.8424	-45.0573	 8.6323	73.6911	-89.0087	 4.9795	 
  1292	-114.9159	-45.0297	 5.4384	67.0364	-75.5449	 8.3668	 
  1293	-114.3699	-44.6310	11.6261	69.3245	-52.8460	20.7508	 
  1294	-113.9671	-44.1031	19.4347	64.8668	-52.5987	31.3049	 
  1295	-113.1964	-42.9965	14.7712	68.1632	-56.4968	32.3694	 
  1296	-112.2167	-42.1948	11.6823	70.9155	-57.8010	29.8898	 
  1297	-111.7055	-41.7453	 8.6104	72.0499	-59.8883	26.7998	 
  1298	-111.2330	-41.3190	16.5096	69.1330	-64.6866	22.7241	 
  1299	-111.0355	-41.1291	23.4067	68.2355	-69.3039	19.8187	 
  1300	-111.1130	-41.1755	13.4387	75.3648	-70.9266	17.0068	 
  1301	-110.6135	-40.9480	21.4832	67.2965	-66.6714	15.6605	 
  1302	-109.3590	-40.6266	20.1028	71.1423	-58.8839	14.0218	 
  1303	-108.6697	-40.3572	18.1187	68.5389	-64.7664	 9.9343	 
  1304	-108.3173	-40.0745	20.1028	71.1423	-70.5883	 8.1483	 
  1305	-108.1586	-39.9077	16.7383	72.3846	-71.8446	 8.3873	 
  1306	-108.4257	-39.9961	21.6513	68.8837	-74.2370	 7.7339	 
  1307	-108.3405	-39.8017	19.8010	67.9177	-78.4195	 6.5045	 
  1308	-108.3870	-39.9729	16.5096	69.1330	-81.4789	 5.3102	 
  1309	-108.1508	-39.7597	24.6452	64.5171	-81.7113	 5.1711	 
  1310	-107.1092	-39.2076	15.0560	73.0058	-74.1941	 7.1932	 
  1311	-106.3580	-39.1877	21.4832	67.2965	-64.3577	 9.8958	 
  1312	-106.0095	-38.9790	25.1621	67.5873	-53.4969	14.1317	 
  1313	-106.0714	-38.7294	20.1028	71.1423	-42.6348	25.3766	 
  1314	-106.2843	-38.4986	25.3689	69.1977	-40.0673	42.3456	 
  1315	-106.4507	-38.0965	35.3726	69.0272	-43.4176	50.1799	 
  1316	-106.1174	-36.7503	39.1652	79.5090	-42.3542	53.6480	 
  1317	-105.7648	-35.7508	45.6614	74.9737	-40.3015	55.5139	 
  1318	-105.7376	-35.2328	51.1674	66.9432	-38.5586	57.1943	 
  1319	-104.5837	-34.6851	38.9648	65.9390	-32.4912	59.9767	 
  1320	-103.6699	-34.4245	31.1387	68.8289	-26.2563	61.7975	 
  1321	-103.5886	-34.3041	28.4316	64.7308	-24.4535	61.9565	 
  1322	-103.4724	-34.2345	22.9629	65.1383	-22.6634	62.5324	 
  1323	-103.4337	-34.2113	23.7967	60.2574	-20.8390	63.0582	 
  1324	-103.8131	-34.2953	15.6305	61.8110	-19.0146	63.5840	 
  1325	-103.9680	-34.3880	16.7099	58.5637	-18.2358	63.4839	 
  1326	-104.5063	-34.6387	18.2458	57.9965	-18.4166	62.9509	 
  1327	-104.5218	-34.9347	21.5964	51.4366	-15.9036	64.3844	 
  1328	-104.2315	-35.1191	18.2458	57.9965	-13.4251	65.2309	 
  1329	-104.5413	-35.3047	16.9726	59.8536	-14.1179	64.8870	 
  1330	-105.0059	-35.5830	21.9206	59.4883	-15.1764	64.6781	 
  1331	-105.3932	-35.8149	18.1187	68.5389	-15.6841	64.3034	 
  1332	-106.0127	-36.1859	20.2408	72.8530	-17.3279	63.6734	 
  1333	-106.6671	-36.5062	25.1621	67.5873	-18.5155	63.1748	 
  1334	-107.1666	-36.7337	28.7459	66.2639	-19.3847	63.0085	 
  1335	-106.7562	-36.7746	29.9113	62.5726	-17.1170	64.0828	 
  1336	-106.4542	-36.7370	26.9174	66.9391	-16.5104	63.5964	 
  1337	-106.6401	-36.7050	28.4316	64.7308	-17.5776	62.6036	 
  1338	-106.7523	-36.7006	25.5800	70.8815	-18.0553	62.1053	 
  1339	-106.8646	-36.6961	23.7515	71.5567	-18.2361	61.5723	 
  1340	-106.9769	-36.6917	30.2601	64.0556	-19.4023	60.8035	 
  1341	-107.3137	-36.6784	25.1621	67.5873	-20.4265	59.9072	 
  1342	-107.2441	-36.7801	26.6762	65.3789	-20.0221	59.7954	 
  1343	-106.5665	-36.7326	29.9113	62.5726	-16.8251	60.1517	 
  1344	-106.5665	-36.7326	30.5745	65.5888	-16.5799	59.8737	 
  1345	-106.6827	-36.8022	29.0259	67.8473	-17.2340	59.5530	 
  1346	-106.7175	-36.7514	21.8581	70.4941	-17.5739	59.4911	 
  1347	-106.9072	-36.7933	31.3566	60.4646	-18.2280	59.1704	 
  1348	-107.1357	-36.8585	24.9208	66.0271	-19.1360	58.3437	 
  1349	-107.3990	-36.8728	29.6012	61.1128	-19.8073	57.7294	 
  1350	-107.2131	-36.9049	26.6762	65.3789	-18.0948	58.2591	 
  1351	-106.6479	-36.8530	29.9113	62.5726	-15.2334	58.6269	 
  1352	-106.7253	-36.8994	23.6135	69.8459	-15.2291	58.7002	 
  1353	-106.9111	-36.8673	28.4316	64.7308	-15.7025	58.2753	 
  1354	-106.9111	-36.8673	33.1851	59.7894	-15.9520	58.4799	 
  1355	-107.1357	-36.8585	31.3566	60.4646	-16.4942	58.1553	 
  1356	-107.4416	-36.9700	24.6452	64.5171	-17.4709	58.0662	 
  1357	-107.7049	-36.9844	31.3566	60.4646	-18.2325	57.8226	 
  1358	-107.2131	-36.9049	29.6012	61.1128	-15.5906	58.2715	 
  1359	-106.8724	-36.8441	27.8458	61.7609	-13.8867	58.6543	 
  1360	-106.9499	-36.8905	29.6012	61.1128	-13.4307	58.1486	 
  1361	-106.8763	-36.9181	27.8458	61.7609	-12.6863	58.0986	 
  1362	-106.8763	-36.9181	27.8458	61.7609	-12.6863	58.0986	 
  1363	-107.0660	-36.9601	24.6452	64.5171	-12.0710	58.3962	 
  1364	-107.2596	-37.0760	28.5033	57.0576	-12.6132	58.0716	 
  1365	-107.4842	-37.0672	26.0905	62.4091	-13.6029	57.7624	 
  1366	-107.7126	-37.1323	25.4790	59.6362	-13.8868	58.0172	 
  1367	-107.1009	-36.9093	25.7847	61.0227	-11.5118	57.7399	 
  1368	-106.6479	-36.8530	22.9629	65.1383	-10.3458	57.2344	 
  1369	-107.0738	-37.1081	32.3542	57.0975	-9.8120	58.6866	 
  1370	-107.0312	-37.0109	25.1621	67.5873	-10.6639	58.8137	 
  1371	-106.9150	-36.9413	26.6762	65.3789	-11.3353	58.1995	 
  1372	-107.1783	-36.9557	27.1612	59.0151	-12.0926	58.0293	 
  1373	-107.4029	-36.9468	32.7331	58.4570	-13.3577	57.4844	 
  1374	-107.4106	-37.0948	24.4082	63.0303	-14.7303	57.0167	 
  1375	-107.1435	-37.0065	30.5988	57.7457	-13.5385	56.9514	 
  1376	-106.4581	-36.8110	24.6452	64.5171	-10.9528	55.8092	 
  1377	-106.4620	-36.8850	32.7561	66.4699	-11.0301	56.4000	 
  1378	-106.6866	-36.8762	27.1974	68.5225	-11.4343	57.7863	 
  1379	-106.6827	-36.8022	34.5616	57.7818	-11.2018	58.5625	 
  1380	-106.7485	-36.6266	36.3901	57.1066	-12.1657	58.0563	 
  1381	-107.0505	-36.6641	29.9113	62.5726	-12.6692	57.7550	 
  1382	-106.9769	-36.6917	24.9208	66.0271	-12.9146	56.7586	 
  1383	-107.1666	-36.7337	27.8458	61.7609	-13.2116	56.1560	 
  1384	-106.6091	-36.8298	29.6012	61.1128	-9.6789	57.1381	 
  1385	-106.3885	-36.9126	26.4005	63.8689	-8.8657	56.9877	 
  1386	-106.6208	-37.0518	21.2807	65.7595	-9.1367	57.4626	 
  1387	-106.5434	-37.0054	22.7260	63.6515	-9.6917	57.5551	 
  1388	-106.6556	-37.0010	27.8458	61.7609	-9.4206	57.7174	 
  1389	-106.9267	-37.1633	22.7260	63.6515	-9.9714	57.8833	 
  1390	-107.2326	-37.2748	31.5276	54.4790	-10.7932	57.8869	 
  1391	-107.3061	-37.2472	30.1855	56.4365	-12.0024	57.0215	 
  1392	-106.9228	-37.0893	30.9777	59.1051	-10.9483	56.5198	 
  1393	-106.4001	-37.1346	30.5988	57.7457	-8.4485	56.4588	 
  1394	-106.3536	-36.9634	28.8434	58.3939	-9.7739	55.5239	 
  1395	-106.4350	-37.0838	29.8454	55.1002	-10.5957	55.5275	 
  1396	-106.4350	-37.0838	24.6452	64.5171	-10.5096	55.7206	 
  1397	-106.6982	-37.0981	28.5033	57.0576	-11.0475	55.4694	 
  1398	-106.9306	-37.2373	28.5033	57.0576	-11.7403	55.1255	 
  1399	-107.1939	-37.2516	31.1186	53.2432	-13.3325	54.1016	 
  1400	-107.4610	-37.3400	24.1025	61.6439	-14.4943	53.4061	 
  1401	-106.8222	-37.3157	25.7847	61.0227	-11.5212	53.1329	 
  1402	-106.8648	-37.4129	20.8112	62.8592	-10.0626	53.1566	 
  1403	-106.7874	-37.3665	30.5988	57.7457	-11.2846	52.7082	 
  1404	-106.8183	-37.2417	28.5033	57.0576	-12.3345	52.6461	 
  1405	-106.9384	-37.3853	33.2830	53.8308	-11.8697	53.5614	 
  1406	-107.2365	-37.3488	30.1855	56.4365	-12.3171	53.5767	 
  1407	-107.4610	-37.3400	32.8008	52.6220	-13.3756	53.3679	 
  1408	-107.6507	-37.3819	30.7096	52.0073	-14.7827	52.9503	 
  1409	-107.3100	-37.3212	20.5785	61.4458	-12.0505	53.0285	 
  1410	-106.8957	-37.2881	26.4809	56.3426	-10.0282	53.1064	 
  1411	-107.1203	-37.2793	27.1612	59.0151	-11.5083	53.3530	 
  1412	-107.1590	-37.3024	28.5033	57.0576	-12.2053	53.5729	 
  1413	-107.1861	-37.1036	27.4670	60.4015	-12.4162	53.1635	 
  1414	-107.2635	-37.1500	31.9409	55.7883	-13.7931	52.6224	 
  1415	-107.5616	-37.1136	33.2830	53.8308	-15.2045	52.1315	 
  1416	-107.7087	-37.0583	35.2785	49.0083	-16.2545	51.4322	 
  1417	-107.3293	-36.9744	32.8008	52.6220	-14.4345	51.2475	 
  1418	-106.8724	-36.8441	31.5276	54.4790	-12.0940	50.3832	 
  1419	-106.9034	-36.7193	30.5988	57.7457	-13.5527	49.7224	 
  1420	-106.8298	-36.7469	31.5276	54.4790	-15.0630	49.4554	 
  1421	-106.8646	-36.6961	33.6963	55.1401	-14.9942	49.3551	 
  1422	-106.8995	-36.6453	27.7541	54.4855	-15.7084	49.2815	 
  1423	-107.2789	-36.7292	29.8454	55.1002	-16.4614	49.1847	 
  1424	-107.3215	-36.8264	26.6090	50.8977	-18.7985	45.6621	 
  1425	-107.7360	-37.5763	15.1252	51.3148	-23.1152	39.6094	 
  1426	-107.5813	-38.2003	13.6914	45.9968	-23.0900	36.2266	 
  1427	-106.9617	-37.8293	13.0155	44.0349	-26.6318	32.5491	 
  1428	-106.8377	-37.6117	12.7700	43.0385	-26.2056	33.4413	 
  1429	-106.1639	-36.9215	13.3341	45.0043	-23.5936	35.2880	 
  1430	-105.7302	-36.5184	13.6914	45.9968	-25.2245	34.2410	 
  1431	-105.6876	-36.4212	17.3275	48.1026	-26.4767	33.2790	 
  1432	-105.9160	-36.4863	21.6428	46.5092	-24.5187	34.8050	 
  1433	-105.8386	-36.4400	17.6892	49.1686	-22.2380	36.7366	 
  1434	-105.3546	-36.5084	19.0788	48.6554	-18.8259	36.9385	 
  1435	-105.2036	-36.4897	17.3275	48.1026	-19.1659	36.2395	 
  1436	-105.0874	-36.4201	15.6720	53.6243	-19.7768	36.6525	 
  1437	-104.9713	-36.3505	20.5416	48.1153	-19.1830	37.2203	 
  1438	-105.2423	-36.5129	20.1336	51.9768	-19.0753	37.7803	 
  1439	-105.6644	-36.6940	20.5416	48.1153	-17.7668	40.3333	 
  1440	-105.7728	-36.6156	19.7677	50.8375	-17.9086	41.0978	 
  1441	-106.0051	-36.7547	21.6428	46.5092	-20.0517	39.6027	 
  1442	-106.2182	-37.2406	15.6150	47.5730	-21.9670	36.2617	 
  1443	-106.8109	-38.5273	14.3320	43.5487	-22.3157	35.4159	 
  1444	-106.0909	-39.0994	14.0134	42.5794	-33.6678	26.6385	 
  1445	-106.8345	-40.4048	14.7237	44.4911	-41.5599	21.4187	 
  1446	-107.8647	-41.4517	10.1370	44.0108	-41.4863	23.9404	 
  1447	-108.0235	-41.6185	 8.0196	41.6815	-41.3224	26.0914	 
  1448	-109.4795	-42.9205	 7.1887	38.9896	-39.1575	29.2278	 
  1449	-111.7219	-45.6251	 0.1534	36.9020	-38.6454	29.6760	 
  1450	-111.9389	-46.1850	-3.4745	33.0314	-37.5825	30.5954	 
  1451	-112.5199	-47.2497	-6.1768	31.5554	-35.4009	31.4766	 
  1452	-113.4300	-48.1530	-0.7819	27.9890	-34.0755	32.4115	 
  1453	-114.3593	-48.7096	-5.2555	34.5137	-34.6132	32.7975	 
  1454	-114.9014	-49.0343	-1.9511	34.1557	-34.5615	33.0408	 
  1455	-115.1725	-49.1966	-1.9511	34.1557	-34.5830	33.3111	 
  1456	-115.4009	-49.2618	-6.6060	37.5988	-35.2842	34.0948	 
  1457	-115.5907	-49.3038	-2.9843	31.2012	-36.0457	34.4884	 
  1458	-115.7068	-49.3733	-1.9603	30.8231	-36.7040	34.7315	 
  1459	-115.7107	-49.4473	-4.7653	32.6835	-36.4501	34.6003	 
  1460	-115.1415	-49.3214	-4.4984	33.4095	-33.7094	34.1880	 
  1461	-114.9440	-49.1315	-1.9603	30.8231	-33.5974	34.8214	 
  1462	-114.7117	-48.9923	-4.7653	32.6835	-34.4321	35.2420	 
  1463	-114.4368	-48.7560	-0.1793	29.3408	-33.8943	34.8560	 
  1464	-114.4638	-48.5572	-3.2076	33.7575	-34.3288	35.0914	 
  1465	-114.4986	-48.5064	-0.1793	29.3408	-34.9570	35.2109	 
  1466	-114.5683	-48.4048	-5.0230	35.2900	-35.6325	35.1605	 
  1467	-114.8355	-48.4931	-5.2555	34.5137	-35.9079	34.9249	 
  1468	-114.5839	-48.7008	-0.4026	31.8971	-33.5072	33.8135	 
  1469	-114.7465	-48.9415	 1.7185	31.1139	-32.7456	34.0570	 
  1470	-114.9053	-49.1083	-4.7905	36.0663	-33.3479	34.6168	 
  1471	-115.1028	-49.2983	 0.3545	30.7929	-33.3178	34.4932	 
  1472	-115.2964	-49.4142	-5.0230	35.2900	-33.5286	34.7210	 
  1473	-115.6798	-49.5721	-0.6695	31.1710	-34.1825	35.0374	 
  1474	-115.9160	-49.7853	-1.4265	32.2752	-34.6601	35.1763	 
  1475	-116.2684	-50.0680	-1.6934	31.5491	-35.0215	35.3847	 
  1476	-116.0438	-50.0768	-2.7174	31.9272	-33.4942	34.6708	 
  1477	-115.5560	-50.0713	-4.7315	29.4474	-32.2292	34.5785	 
  1478	-115.5095	-49.9001	-1.8059	28.3671	-32.7670	34.9645	 
  1479	-115.4669	-49.8030	-3.4794	29.7722	-33.1887	34.7829	 
  1480	-115.4282	-49.7798	-5.0328	28.7715	-33.1930	34.7095	 
  1481	-115.3894	-49.7566	-1.3458	26.6604	-33.3650	34.9605	 
  1482	-115.4591	-49.6550	-5.2260	31.2043	-33.4596	35.2578	 
  1483	-115.5327	-49.6273	-2.5285	29.4211	-33.8855	35.6399	 
  1484	-115.0022	-49.5247	-0.3950	26.3093	-32.1775	34.8218	 
  1485	-114.4640	-49.2740	 1.6530	25.5531	-31.2869	34.7178	 
  1486	-114.2974	-48.9592	-1.0832	27.3131	-32.0097	35.1347	 
  1487	-114.0534	-48.5981	 1.5673	27.9086	-32.4056	34.7561	 
  1488	-114.0534	-48.5981	 0.5434	28.2868	-32.4013	34.8295	 
  1489	-114.3245	-48.7604	-2.2272	30.0970	-33.1284	35.1729	 
  1490	-114.5955	-48.9228	-0.9364	30.4449	-33.6791	35.3388	 
  1491	-114.9828	-49.1547	-2.2272	30.0970	-34.0835	35.4506	 
  1492	-114.8125	-49.4827	-0.1793	29.3408	-32.1002	34.2310	 
  1493	-114.6654	-49.5379	 1.3785	30.4148	-31.4160	34.4282	 
  1494	-114.8629	-49.7279	 0.3545	30.7929	-31.8290	35.0305	 
  1495	-115.0255	-49.9686	-1.4265	32.2752	-32.1388	34.8450	 
  1496	-115.1882	-50.2094	 0.3545	30.7929	-32.1302	34.9917	 
  1497	-115.5019	-50.4689	-4.0083	31.5793	-32.7798	35.3816	 
  1498	-115.8117	-50.6544	-3.4794	29.7722	-33.5285	35.3582	 
  1499	-116.0092	-50.8444	-4.3446	27.7677	-34.2427	35.2845	 
  1500	-115.8233	-50.8764	-5.0328	28.7715	-33.2189	34.2693	 
  1501	-115.4943	-51.0377	-2.7567	28.7182	-32.0701	34.1074	 
  1502	-115.7227	-51.1028	 2.6769	25.1749	-32.4443	34.7329	 
  1503	-115.8041	-51.2232	-2.0341	27.6642	-32.7326	34.9143	 
  1504	-115.8854	-51.3436	-0.4806	28.6649	-32.7326	34.9143	 
  1505	-116.0751	-51.3856	 1.2660	27.2328	-32.9992	35.4626	 
  1506	-116.1526	-51.4319	-0.0593	26.9350	-33.3907	35.7946	 
  1507	-116.3036	-51.4507	-2.3698	27.0385	-34.0189	35.9141	 
  1508	-116.4197	-51.5203	-5.9837	29.1226	-34.2813	35.8985	 
  1509	-116.2726	-51.5755	-2.5980	26.3356	-33.7909	35.3426	 
  1510	-115.7461	-51.5468	-2.3698	27.0385	-32.3281	34.8025	 
  1511	-115.7500	-51.6208	 1.3516	24.8772	-32.2893	35.4628	 
  1512	-115.9010	-51.6396	-4.3446	27.7677	-32.7539	35.8218	 
  1513	-115.9436	-51.7368	-3.6219	26.7137	-32.7238	35.6982	 
  1514	-116.0210	-51.7831	-5.2954	28.1188	-33.0335	36.1500	 
  1515	-116.1720	-51.8019	-3.1963	25.0572	-33.4680	36.3854	 
  1516	-116.3617	-51.8439	-3.8845	26.0610	-34.1005	36.4315	 
  1517	-116.4005	-51.8671	-1.2004	22.1461	-34.3673	36.3426	 
  1518	-116.4818	-51.9874	-1.5916	23.7525	-34.7029	36.3541	 
  1519	-116.3695	-51.9919	-3.1963	25.0572	-33.6059	35.3118	 
  1520	-116.1488	-52.0747	-0.2706	23.9769	-32.4528	35.2233	 
  1521	-116.2302	-52.1951	-2.5980	26.3356	-32.7410	36.0419	 
  1522	-116.3464	-52.2647	-3.6219	26.7137	-33.2228	36.1074	 
  1523	-116.3115	-52.3155	 0.7533	23.5988	-33.1454	36.1538	 
  1524	-116.3502	-52.3386	-6.2462	28.4699	-33.5626	36.6827	 
  1525	-116.6135	-52.3530	-6.4744	27.7670	-33.9671	36.7945	 
  1526	-116.7684	-52.4458	-6.4744	27.7670	-34.5221	36.8870	 
  1527	-116.9194	-52.4645	-4.1471	25.4083	-34.8964	36.8753	 
  1528	-116.8498	-52.5661	-3.8845	26.0610	-34.7330	36.4776	 
  1529	-116.2457	-52.4911	-2.5980	26.3356	-32.6679	35.3777	 
  1530	-116.0173	-52.4259	-3.1963	25.0572	-32.2720	35.7563	 
  1531	-116.1683	-52.4447	-3.4933	24.4547	-33.1539	36.6442	 
  1532	-116.0947	-52.4723	-5.0979	25.7594	-33.1755	36.2773	 
  1533	-115.9437	-52.4535	-4.7067	24.1530	-32.8442	36.1925	 
  1534	-116.1722	-52.5187	-0.9034	22.7486	-33.9541	37.0147	 
  1535	-116.4742	-52.5562	-4.4441	24.8058	-35.0900	37.3966	 
  1536	-116.5516	-52.6026	-5.0979	25.7594	-35.2277	36.9602	 
  1537	-116.5904	-52.6258	-5.3949	25.1569	-35.2063	36.6899	 
  1538	-116.5904	-52.6258	-1.2004	22.1461	-35.0299	36.5123	 
  1539	-116.1025	-52.6203	-5.8814	23.8746	-33.1412	35.5900	 
  1540	-116.1064	-52.6943	-6.1784	23.2721	-33.5756	36.4626	 
  1541	-116.2574	-52.7131	-3.6960	21.6433	-34.3027	36.8060	 
  1542	-116.2961	-52.7362	-5.6575	24.5041	-34.1823	36.3118	 
  1543	-116.3736	-52.7826	-5.0037	23.5505	-34.3457	36.7095	 
  1544	-116.5246	-52.8014	-6.5352	24.8282	-34.6340	36.8909	 
  1545	-116.6020	-52.8478	-6.1784	23.2721	-35.2321	36.8868	 
  1546	-116.8692	-52.9361	-5.8559	21.7662	-35.2751	36.7903	 
  1547	-116.9505	-53.0565	-8.0069	23.9473	-35.1976	36.8366	 
  1548	-116.4240	-53.0278	-8.0069	23.9473	-33.2014	35.8371	 
  1549	-116.3117	-53.0322	-5.2275	22.9210	-33.0550	36.4203	 
  1550	-116.3078	-52.9582	-3.6319	19.5580	-33.5971	36.7329	 
  1551	-116.1529	-52.8655	-5.0037	23.5505	-33.5799	36.3892	 
  1552	-116.2304	-52.9118	-8.0069	23.9473	-33.8595	36.7174	 
  1553	-116.4588	-52.9770	-6.1784	23.2721	-34.1134	36.8486	 
  1554	-116.6485	-53.0190	-6.3458	25.5080	-34.5479	37.0840	 
  1555	-116.9505	-53.0565	-5.6575	24.5041	-35.0642	37.1997	 
  1556	-116.9157	-53.1073	-3.7559	23.8019	-35.0470	36.8560	 
  1557	-116.4279	-53.1018	-2.1512	22.4972	-32.8571	35.9724	 
  1558	-116.3504	-53.0554	-6.7370	27.1143	-32.5558	36.6483	 
  1559	-116.5363	-53.0234	-3.4933	24.4547	-33.1237	37.1578	 
  1560	-116.6098	-52.9958	-2.2454	24.7061	-33.3647	36.8720	 
  1561	-116.5750	-53.0466	-1.5916	23.7525	-33.3991	36.9222	 
  1562	-116.7260	-53.0653	-3.7559	23.8019	-34.0100	37.3352	 
  1563	-116.7995	-53.0377	-2.5424	24.1036	-34.6038	37.4045	 
  1564	-116.9505	-53.0565	-1.8542	23.0997	-34.9910	37.1727	 
  1565	-116.9931	-53.1537	-3.7559	23.8019	-35.1072	37.1031	 
  1566	-116.6524	-53.0930	-3.1020	22.8483	-33.3089	35.9143	 
  1567	-116.5053	-53.1482	-1.5916	23.7525	-32.7323	36.1887	 
  1568	-116.5828	-53.1946	-4.5728	27.0648	-33.1453	36.7910	 
  1569	-116.5789	-53.1206	-0.9034	22.7486	-33.5282	36.6325	 
  1570	-116.5440	-53.1714	-4.4441	24.8058	-33.4120	36.7020	 
  1571	-116.6563	-53.1670	-2.8050	23.4508	-33.7261	37.0804	 
  1572	-116.8073	-53.1857	-1.4974	21.5436	-34.0918	37.2154	 
  1573	-116.9583	-53.2045	-7.2234	25.8321	-34.6167	37.1844	 
  1574	-117.0358	-53.2509	-3.3990	22.2458	-34.8448	37.1186	 
  1575	-116.5092	-53.2222	-1.4974	21.5436	-32.9346	35.9260	 
  1576	-116.3156	-53.1062	-6.7370	27.1143	-32.2805	36.2467	 
  1577	-116.3156	-53.1062	-6.0488	26.1105	-32.6634	36.7255	 
  1578	-116.3156	-53.1062	-4.7067	24.1530	-32.8613	36.5362	 
  1579	-116.2033	-53.1106	-3.3990	22.2458	-32.8183	36.6327	 
  1580	-116.3504	-53.0554	-4.4441	24.8058	-33.2055	37.0381	 
  1581	-116.4627	-53.0510	-3.7559	23.8019	-33.4593	37.1693	 
  1582	-116.6137	-53.0698	-4.0528	23.1994	-33.9068	37.1846	 
  1583	-116.7299	-53.1393	-5.7862	26.7632	-34.1305	37.1922	 
  1584	-116.6524	-53.0930	-6.9996	26.4616	-33.7433	36.7869	 
  1585	-116.0523	-53.0919	-2.4482	21.8947	-31.7729	35.9843	 
  1586	-116.0523	-53.0919	-2.4482	21.8947	-31.7383	36.5713	 
  1587	-116.1646	-53.0875	-7.2234	25.8321	-32.0610	36.8029	 
  1588	-116.0910	-53.1151	-5.6575	24.5041	-32.1127	36.5596	 
  1589	-116.2033	-53.1106	-5.0037	23.5505	-32.3191	36.8607	 
  1590	-116.4279	-53.1018	-4.3498	22.5969	-32.8311	37.0498	 
  1591	-116.6563	-53.1670	-4.0528	23.1994	-33.3604	36.9454	 
  1592	-116.7376	-53.2873	-5.4604	20.2332	-33.9240	36.8911	 
  1593	-116.9274	-53.3293	-5.8559	21.7662	-34.3758	36.8330	 
  1594	-117.1558	-53.3944	-8.1666	21.2325	-34.7157	36.7711	 
  1595	-116.7067	-53.4121	-6.9919	21.5109	-32.8013	35.6519	 
  1596	-116.4783	-53.3470	-6.7336	22.0903	-32.0870	35.7255	 
  1597	-116.5209	-53.4442	-6.3381	20.5573	-32.7496	35.8952	 
  1598	-116.5944	-53.4165	-6.9919	21.5109	-33.3736	35.4509	 
  1599	-116.3621	-53.2774	-4.2560	18.4765	-33.7695	35.0723	 
  1600	-116.4705	-53.1990	-6.3381	20.5573	-34.4536	34.8751	 
  1601	-116.7725	-53.2365	-6.7336	22.0903	-35.4046	34.5891	 
  1602	-116.9583	-53.2045	-1.1749	20.0377	-36.0286	34.1448	 
  1603	-117.3765	-53.3116	-3.4933	24.4547	-35.0045	34.4038	 
  1604	-117.2990	-53.2652	-0.4806	28.6649	-31.6050	36.2972	 
  1605	-116.0833	-52.9671	 7.5561	24.9101	-23.4678	40.6017	 
  1606	-115.9593	-52.7495	 5.6938	28.8214	-21.2814	44.1050	 
  1607	-116.2226	-52.7639	 5.5824	31.3739	-19.8782	46.9978	 
  1608	-115.7540	-52.4116	 5.5824	31.3739	-16.0652	51.4748	 
  1609	-115.9050	-52.4303	12.3161	31.5112	-15.4712	52.6798	 
  1610	-115.8120	-52.0880	 9.7383	28.9771	-17.8466	51.0455	 
  1611	-115.8817	-51.9864	 7.4710	29.8144	-20.5836	48.3453	 
  1612	-116.1062	-51.9775	 6.6795	30.9688	-20.9795	47.9668	 
  1613	-116.2495	-51.8483	 8.5681	29.4093	-20.4932	48.6118	 
  1614	-115.7965	-51.7920	 7.1309	29.1153	-18.5310	49.5740	 
  1615	-114.9214	-51.5546	 6.6795	30.9688	-16.6980	49.6094	 
  1616	-115.2156	-51.4441	 5.5824	31.3739	-17.4812	48.9990	 
  1617	-115.9862	-51.8340	13.4864	31.0791	-17.4982	49.9798	 
  1618	-116.1411	-51.9267	14.6313	33.3926	-18.5698	48.9137	 
  1619	-116.4779	-51.9134	12.6605	32.2837	-20.3601	47.0633	 
  1620	-117.1671	-52.1829	 9.2537	37.2525	-21.9178	45.9893	 
  1621	-117.7750	-52.3320	12.2177	34.2839	-23.2733	45.1779	 
  1622	-117.9570	-52.2259	13.7710	34.6474	-25.1281	43.5013	 
  1623	-117.9531	-52.1519	 9.8040	35.1751	-26.3503	42.4158	 
  1624	-117.0006	-51.8681	 8.9437	36.4299	-22.2839	44.2128	 
  1625	-117.1981	-52.0581	15.7462	35.8297	-19.2673	46.5848	 
  1626	-118.1080	-52.2447	16.8697	38.4135	-19.7793	46.7739	 
  1627	-117.7246	-52.0868	19.6226	34.3983	-21.0702	45.7887	 
  1628	-117.8640	-51.8836	14.8515	37.1347	-22.1031	44.7458	 
  1629	-118.0924	-51.9487	16.8697	38.4135	-23.2606	44.1236	 
  1630	-118.6577	-52.0006	14.8515	37.1347	-24.4483	43.6251	 
  1631	-118.8397	-51.8946	 9.5773	42.1184	-30.6235	39.0084	 
  1632	-118.7622	-51.8482	17.4845	36.1624	-35.5766	34.8400	 
  1633	-118.0072	-51.7543	12.6789	38.9489	-33.1716	33.8020	 
  1634	-117.9685	-51.7312	14.3097	39.3588	-33.2965	33.5857	 
  1635	-118.5725	-51.8062	17.5012	33.2700	-32.1561	34.5515	 
  1636	-119.0603	-51.8117	20.1343	32.2977	-30.7575	35.4595	 
  1637	-119.4398	-51.8956	12.0160	37.2071	-31.0157	35.5173	 
  1638	-119.9663	-51.9243	15.3975	34.9839	-29.9915	36.4135	 
  1639	-120.4968	-52.0270	15.2389	38.0037	-30.5809	36.5562	 
  1640	-120.9150	-52.1341	16.5554	37.5175	-30.7960	36.7106	 
  1641	-120.6130	-52.0966	16.5554	37.5175	-30.1635	36.6645	 
  1642	-119.6643	-51.8868	15.9405	39.7687	-25.2540	37.5504	 
  1643	-119.7727	-51.8084	16.7196	41.5801	-26.4029	37.0751	 
  1644	-120.1096	-51.7951	15.9405	39.7687	-27.6034	36.9936	 
  1645	-120.1444	-51.7443	16.2935	40.6879	-28.3779	36.5299	 
  1646	-120.2915	-51.6891	16.8697	38.4135	-29.3719	36.1473	 
  1647	-120.5896	-51.6526	16.5554	37.5175	-30.5681	36.1392	 
  1648	-121.0000	-51.6118	15.6263	38.8727	-31.6954	36.0307	 
  1649	-121.1897	-51.6537	12.9932	39.8450	-32.5001	35.6906	 
  1650	-121.3020	-51.6493	17.4845	36.1624	-32.8744	35.6789	 
  1651	-120.3147	-51.4163	17.7988	37.0584	-28.1715	36.2288	 
  1652	-120.0475	-51.3280	15.9405	39.7687	-27.4185	36.3256	 
  1653	-120.3069	-51.2683	19.5759	37.4143	-28.7739	36.1514	 
  1654	-120.4153	-51.1899	15.9405	39.7687	-29.3375	36.0971	 
  1655	-120.4501	-51.1391	19.1153	36.5723	-29.0406	36.0624	 
  1656	-120.8605	-51.0982	15.6263	38.8727	-30.2368	36.0543	 
  1657	-121.1625	-51.1357	11.4355	39.4081	-31.4072	35.8493	 
  1658	-121.4219	-51.0761	14.3097	39.3588	-32.3495	35.7099	 
  1659	-121.5729	-51.0949	16.5554	37.5175	-33.1068	35.5398	 
  1660	-121.1896	-50.9369	17.4845	36.1624	-31.3857	35.5790	 
  1661	-120.2835	-50.8243	20.5050	36.0591	-27.4487	35.8120	 
  1662	-120.5468	-50.8387	16.1680	36.6485	-28.3049	35.8657	 
  1663	-120.9224	-50.8486	13.6081	37.5938	-29.4021	35.6337	 
  1664	-120.9185	-50.7746	15.6263	38.8727	-29.4452	35.5371	 
  1665	-121.0656	-50.7194	17.0627	35.3436	-30.3230	35.2240	 
  1666	-121.4024	-50.7061	16.1680	36.6485	-31.8591	35.1540	 
  1667	-121.7780	-50.7160	15.2389	38.0037	-32.8057	34.9413	 
  1668	-122.0800	-50.7536	12.0160	37.2071	-33.4855	34.8175	 
  1669	-122.3820	-50.7911	12.9932	39.8450	-34.0966	34.5934	 
  1670	-121.8942	-50.7856	15.3975	34.9839	-33.0897	34.5589	 
  1671	-120.9804	-50.5250	16.6409	34.5248	-28.5590	34.7226	 
  1672	-121.0191	-50.5482	14.3097	39.3588	-29.7594	34.6411	 
  1673	-121.3172	-50.5117	15.2389	38.0037	-30.5942	34.4246	 
  1674	-121.3869	-50.4101	 9.5773	42.1184	-30.4522	34.2972	 
  1675	-121.5379	-50.4289	14.6971	40.2278	-30.9384	34.2893	 
  1676	-121.9134	-50.4388	14.8515	37.1347	-32.2422	34.3584	 
  1677	-122.2503	-50.4256	17.0627	35.3436	-33.2576	34.2461	 
  1678	-122.5484	-50.3891	14.8515	37.1347	-33.9762	34.0991	 
  1679	-122.7381	-50.4311	15.7462	35.8297	-34.5011	34.0680	 
  1680	-122.7768	-50.4543	13.2594	36.7480	-34.0277	34.4930	 
  1681	-121.7547	-50.2721	16.5554	37.5175	-28.6149	35.0431	 
  1682	-121.5262	-50.2069	18.7279	35.7033	-28.2147	34.8579	 
  1683	-121.8979	-50.1428	16.6409	34.5248	-29.9445	34.6719	 
  1684	-122.0489	-50.1616	21.8339	32.6072	-30.4049	34.4671	 
  1685	-122.1224	-50.1340	15.2389	38.0037	-30.0392	34.3321	 
  1686	-122.5716	-50.1163	14.8515	37.1347	-30.0692	35.0928	 
  1687	-122.9510	-50.2002	12.6789	38.9489	-31.0286	35.2972	 
  1688	-123.0981	-50.1450	13.9223	38.4898	-31.9452	34.9609	 
  1689	-123.2065	-50.0666	12.3647	38.0529	-32.0871	35.0883	 
  1690	-123.3575	-50.0854	11.1213	38.5121	-31.8805	35.4243	 
  1691	-122.9781	-50.0014	13.2594	36.7480	-30.2110	35.8574	 
  1692	-121.8784	-49.7729	16.1680	36.6485	-25.7921	36.0249	 
  1693	-121.9520	-49.7453	15.3975	34.9839	-27.3799	35.7116	 
  1694	-122.3624	-49.7044	15.0144	34.1883	-28.6879	35.7073	 
  1695	-122.2888	-49.7320	14.5028	36.2888	-28.1802	35.4449	 
  1696	-122.4359	-49.6768	14.8515	37.1347	-28.9762	35.2515	 
  1697	-122.8463	-49.6359	13.2594	36.7480	-30.4822	35.0579	 
  1698	-123.1135	-49.7242	12.0160	37.2071	-31.5795	34.8259	 
  1699	-123.3768	-49.7386	15.3975	34.9839	-32.3411	34.5823	 
  1700	-123.6013	-49.7297	12.3647	38.0529	-32.9047	34.5281	 
  1701	-123.4852	-49.6601	12.0160	37.2071	-32.6767	34.5938	 
  1702	-122.2772	-49.5100	13.6081	37.5938	-26.9368	34.9857	 
  1703	-122.1958	-49.3896	 8.6137	43.5237	-27.4790	34.6612	 
